% ITASE_2000_5					
% Water isotope data from the University of Washington					
% Eric J. Steig and David P. Schneider					
%					
% Citation:					
% Steig EJ, Ding Q, White JCW, Kuettel M, Rupper SB, Neumann TA, Neff PD,					
% Gallant AJE, Mayewski PA, Taylor KC, Hoffmann G, Dixon DA, Schoenemann S, Markle BM, 					
% Schneider DP, Fudge TJ, Schauer AJ, Teel RP, Vaughn B, Burgener L, Williams J,					
% Korotkikh E. Recent climate and ice-sheet changes in West Antarctica compared					
% with the past 2000 years. Nature Geoscience 6: 372-375, doi: 10.1038/NGEO1778 (2013).					
%					
% Depths are given in meters. Age in calendar years.					
% Ages refer to nominal Jan 1st (that is, 2000.0 means midnight of Dec 31, 1999)					
%					
% Isotope ratios are normalized on the V-SMOW / SLAP scale.					
% Precision is <0.1 per mil and <1 per mil for d18O and delD, respectively.  Analysis via CO2 equilibration (d18O), reduction on Cr (dD) or laser spectroscopy (dD).					
%					
% Core ITASE_2000_5, Location 123.995 W, 77.683 S, 1828 m					
%					
% Core depth = 60 m.  Analyzed to 60 m.					
%					
% '999999' = no data					
%					
% Depth_top	Depth_bottom	Age_top	Age_bottom	d18O (per mil)	dD (per mil)
0	0.02	2001	2000.963	999999	-252.62
0.02	0.04	2000.963	2000.9259	999999	-247.41
0.04	0.06	2000.9259	2000.8889	999999	-243.39
0.06	0.08	2000.8889	2000.8519	999999	-245.87
0.08	0.1	2000.8519	2000.8148	999999	-280.71
0.1	0.12	2000.8148	2000.7778	999999	-304.74
0.12	0.14	2000.7778	2000.7407	999999	-303.04
0.14	0.16	2000.7407	2000.7037	999999	-281.83
0.16	0.18	2000.7037	2000.6667	999999	-288.27
0.18	0.2	2000.6667	2000.6296	999999	-274.06
0.2	0.22	2000.6296	2000.5926	999999	-305.22
0.22	0.24	2000.5926	2000.5556	999999	-322.18
0.24	0.26	2000.5556	2000.5185	999999	-326.33
0.26	0.28	2000.5185	2000.4815	999999	-316.5
0.28	0.3	2000.4815	2000.4444	999999	-304.06
0.3	0.32	2000.4444	2000.4074	999999	-289.71
0.32	0.34	2000.4074	2000.3704	999999	-260.59
0.34	0.36	2000.3704	2000.3333	999999	-273.26
0.36	0.38	2000.3333	2000.2963	999999	-273.77
0.38	0.4	2000.2963	2000.2593	999999	-272.91
0.4	0.42	2000.2593	2000.2222	999999	-260.17
0.42	0.44	2000.2222	2000.1852	999999	-245.2
0.44	0.46	2000.1852	2000.1481	999999	-274.67
0.46	0.48	2000.1481	2000.1111	999999	-272.32
0.48	0.5	2000.1111	2000.0741	999999	-276.81
0.5	0.52	2000.0741	2000.037	999999	-274.21
0.52	0.54	2000.037	2000	999999	-258.01
0.54	0.56	2000	1999.9524	999999	-265.67
0.56	0.58	1999.9524	1999.9048	999999	-277.56
0.58	0.6	1999.9048	1999.8571	999999	-268.58
0.6	0.62	1999.8571	1999.8095	999999	-274.41
0.62	0.64	1999.8095	1999.7619	999999	-304.5
0.64	0.66	1999.7619	1999.7143	999999	-303.83
0.66	0.68	1999.7143	1999.6667	999999	-301.3
0.68	0.7	1999.6667	1999.619	999999	-301.54
0.7	0.72	1999.619	1999.5714	999999	-270.62
0.72	0.74	1999.5714	1999.5238	999999	-303.07
0.74	0.76	1999.5238	1999.4762	999999	-299.49
0.76	0.78	1999.4762	1999.4286	999999	-306.06
0.78	0.8	1999.4286	1999.381	999999	-311.31
0.8	0.82	1999.381	1999.3333	999999	-296.69
0.82	0.84	1999.3333	1999.2857	999999	-306.01
0.84	0.86	1999.2857	1999.2381	999999	-287.77
0.86	0.88	1999.2381	1999.1905	999999	-291.29
0.88	0.9	1999.1905	1999.1429	999999	-276.09
0.9	0.92	1999.1429	1999.0952	999999	-279.32
0.92	0.94	1999.0952	1999.0476	999999	-277.42
0.94	0.96	1999.0476	1999	999999	-274.29
0.96	0.98	1999	1998.9545	999999	-279.75
0.98	1	1998.9545	1998.9091	999999	-279.18
1	1.02	1998.9091	1998.8864	999999	-280.63
1.01	1.043	1998.8864	1998.8123	-34.26	-272.93
1.043	1.075	1998.8123	1998.7382	-33.14	-274.2
1.075	1.108	1998.7382	1998.6642	-34.94	-282.47
1.108	1.14	1998.6642	1998.5901	-34.2	-279.58
1.14	1.173	1998.5901	1998.5161	-34.73	-272.39
1.173	1.206	1998.5161	1998.442	-34.81	-273.53
1.206	1.238	1998.442	1998.3679	-35.27	-278.19
1.238	1.271	1998.3679	1998.2939	-35.85	-284.93
1.271	1.303	1998.2939	1998.2198	-35.4	-282.5
1.303	1.336	1998.2198	1998.1458	-34.58	-273.57
1.336	1.368	1998.1458	1998.0717	-33.82	-270.84
1.368	1.401	1998.0717	1997.9963	-34.58	-275.18
1.401	1.434	1997.9963	1997.8799	-35.14	-280.03
1.434	1.466	1997.8799	1997.7636	-33.75	-277.72
1.466	1.499	1997.7636	1997.6472	-34.2	-271.01
1.499	1.531	1997.6472	1997.5308	-33.65	-265.65
1.531	1.564	1997.5308	1997.4144	-32.92	-263.85
1.564	1.597	1997.4144	1997.298	-32.89	-261.62
1.597	1.629	1997.298	1997.1817	-33.31	-265.91
1.629	1.662	1997.1817	1997.0653	-33.94	-268.96
1.662	1.694	1997.0653	1996.945	-34.12	-269.63
1.694	1.727	1996.945	1996.8196	-33.9	-267.47
1.727	1.759	1996.8196	1996.6943	-33.41	-264.07
1.759	1.792	1996.6943	1996.569	-33.01	-258.42
1.792	1.825	1996.569	1996.4437	-32.63	-254.12
1.825	1.857	1996.4437	1996.3183	-32.44	-254.41
1.857	1.89	1996.3183	1996.193	-32.45	-255.77
1.89	1.922	1996.193	1996.0677	-31.65	-249.27
1.922	1.955	1996.0677	1995.9063	-30.24	-239.27
1.955	1.987	1995.9063	1995.6547	-30.27	-241.77
1.987	2.018	1995.6547	1995.5152	-30.98	-254.73
2.018	2.05	1995.5152	1995.3977	-33.46	-268.19
2.05	2.081	1995.3977	1995.2803	-34.91	-280.26
2.081	2.113	1995.2803	1995.1629	-35.83	-289.43
2.113	2.144	1995.1629	1995.0455	-35.55	-286.61
2.144	2.176	1995.0455	1994.9177	-35.43	-279.59
2.176	2.207	1994.9177	1994.7836	-34.32	-273.46
2.207	2.239	1994.7836	1994.6494	-34.21	-265.36
2.239	2.27	1994.6494	1994.5152	-33.48	-262.79
2.27	2.302	1994.5152	1994.381	-32.77	-257.74
2.302	2.333	1994.381	1994.2468	-32.59	-259.94
2.333	2.365	1994.2468	1994.1126	-34.19	-272.7
2.365	2.396	1994.1126	1993.9832	-33.74	-286.29
2.396	2.428	1993.9832	1993.8788	-36.95	-298.44
2.428	2.459	1993.8788	1993.7744	-37.6	-300.97
2.459	2.491	1993.7744	1993.67	-35.15	-298.8
2.491	2.522	1993.67	1993.5657	-36.58	-290.64
2.522	2.554	1993.5657	1993.4613	-35.47	-280.66
2.554	2.585	1993.4613	1993.3569	-33.99	-269.38
2.585	2.617	1993.3569	1993.2525	-33.13	-259.45
2.617	2.648	1993.2525	1993.1481	-31.84	-249.53
2.648	2.68	1993.1481	1993.0438	-31.25	-240.75
2.68	2.711	1993.0438	1992.9455	-30.73	-240.91
2.711	2.743	1992.9455	1992.8515	-31.1	-245.46
2.743	2.774	1992.8515	1992.7576	-27.94	-249.77
2.774	2.806	1992.7576	1992.6636	-32.89	-262.92
2.806	2.837	1992.6636	1992.5697	-34.77	-272.53
2.837	2.869	1992.5697	1992.4758	-31.12	-276.05
2.869	2.9	1992.4758	1992.3818	-32.9	-273.71
2.9	2.932	1992.3818	1992.2879	-33.65	-265.45
2.932	2.963	1992.2879	1992.1939	-31.89	-251.82
2.963	2.995	1992.1939	1992.1	-30.43	-239.58
2.995	3.026	1992.1	1992.0167	-28.06	-228.05
3.026	3.056	1992.0167	1991.9333	-28.28	-224.08
3.056	3.087	1991.9333	1991.85	-28.28	-223.6
3.087	3.118	1991.85	1991.7667	-29	-228.73
3.118	3.148	1991.7667	1991.6833	-29.91	-237.07
3.148	3.179	1991.6833	1991.6	-29.82	-249.11
3.179	3.21	1991.6	1991.5167	-33.02	-263.78
3.21	3.24	1991.5167	1991.4333	-34.27	-277.65
3.24	3.271	1991.4333	1991.35	-34.71	-282.97
3.271	3.302	1991.35	1991.2667	-35.87	-283.34
3.302	3.332	1991.2667	1991.1834	-34.92	-281.18
3.332	3.363	1991.1834	1991.1	-34.12	-275.62
3.363	3.394	1991.1	1991.0167	-34.18	-273.3
3.394	3.424	1991.0167	1990.8889	-32.62	-270.13
3.424	3.455	1990.8889	1990.75	-33.92	-267.42
3.455	3.486	1990.75	1990.6112	-31.83	-267.25
3.486	3.516	1990.6112	1990.4723	-34.04	-269.72
3.516	3.547	1990.4723	1990.3334	-34.27	-270.8
3.547	3.578	1990.3334	1990.1945	-32	-268.03
3.578	3.608	1990.1945	1990.0556	-33.01	-262.55
3.608	3.639	1990.0556	1989.9286	-31.98	-253.41
3.639	3.67	1989.9286	1989.8096	-29.79	-243.25
3.67	3.7	1989.8096	1989.6905	-30.99	-243.49
3.7	3.731	1989.6905	1989.5715	-31.59	-251.74
3.731	3.762	1989.5715	1989.4524	-33.23	-264.86
3.762	3.792	1989.4524	1989.3334	-34.55	-279.48
3.792	3.823	1989.3334	1989.2144	-30.48	-286.36
3.823	3.854	1989.2144	1989.0953	-34.71	-290.49
3.854	3.884	1989.0953	1988.9763	-35.06	-285.81
3.884	3.915	1988.9763	1988.8571	-35.79	-281.58
3.915	3.945	1988.8571	1988.7273	-31.98	-276.41
3.945	3.976	1988.7273	1988.5974	-33.74	-275.55
3.976	4.006	1988.5974	1988.4675	-31.51	-271.57
4.006	4.036	1988.4675	1988.3377	-34.09	-269.46
4.036	4.067	1988.3377	1988.2078	-32.19	-264.31
4.067	4.097	1988.2078	1988.0779	-28.98	-259.18
4.097	4.127	1988.0779	1987.9481	-33.11	-259.55
4.127	4.157	1987.9481	1987.8182	-30.77	-251.45
4.157	4.188	1987.8182	1987.6883	-33.57	-256.25
4.188	4.218	1987.6883	1987.5584	-34.06	-274.18
4.218	4.248	1987.5584	1987.4286	-34.99	-280.82
4.248	4.279	1987.4286	1987.2987	-35.31	-284.78
4.279	4.309	1987.2987	1987.1688	-35.68	-285.44
4.309	4.339	1987.1688	1987.039	-35.64	-284.08
4.339	4.37	1987.039	1986.947	-33.67	-278.56
4.37	4.4	1986.947	1986.8712	-33.74	-274.41
4.4	4.43	1986.8712	1986.7955	-34.09	-274.84
4.43	4.46	1986.7955	1986.7197	-34.43	-275.64
4.46	4.491	1986.7197	1986.6439	-34.36	-282.22
4.491	4.521	1986.6439	1986.5682	-35.06	-284.9
4.521	4.551	1986.5682	1986.4924	-35.81	-285.64
4.551	4.582	1986.4924	1986.4167	-35.75	-285.84
4.582	4.612	1986.4167	1986.3409	-35.51	-282.73
4.612	4.642	1986.3409	1986.2652	-28.83	-275.97
4.642	4.673	1986.2652	1986.1894	-32.86	-274.56
4.673	4.703	1986.1894	1986.1136	-34.67	-273.94
4.703	4.733	1986.1136	1986.0379	-34.07	-270.96
4.733	4.763	1986.0379	1985.9351	-34.83	-274.04
4.763	4.794	1985.9351	1985.8052	-35.06	-276.47
4.794	4.824	1985.8052	1985.6753	-35.27	-278.67
4.824	4.854	1985.6753	1985.5455	-34.61	-280.85
4.854	4.885	1985.5455	1985.4156	-35.08	-282.6
4.885	4.915	1985.4156	1985.2857	-28.03	-278.59
4.915	4.945	1985.2857	1985.1515	-34.87	-275.46
4.945	4.976	1985.1515	1985.0173	-34	-272.63
4.976	5.006	1985.0173	1984.9091	-33.25	-270.76
5.006	5.037	1984.9091	1984.8047	-31	-265.58
5.037	5.067	1984.8047	1984.7003	-30.33	-264.29
5.067	5.098	1984.7003	1984.596	-33.14	-262.31
5.098	5.128	1984.596	1984.4916	-32.85	-258.35
5.128	5.158	1984.4916	1984.3872	-32.29	-256.07
5.158	5.189	1984.3872	1984.2828	-32.47	-254.65
5.189	5.219	1984.2828	1984.1785	-32.18	-256.95
5.219	5.25	1984.1785	1984.0741	-31	-258.86
5.25	5.28	1984.0741	1983.961	-33.54	-264.1
5.28	5.311	1983.961	1983.8268	-33.64	-273.17
5.311	5.341	1983.8268	1983.6926	-34.49	-277.08
5.341	5.371	1983.6926	1983.5584	-35.07	-279.33
5.371	5.402	1983.5584	1983.4242	-33.58	-276.28
5.402	5.432	1983.4242	1983.29	-31.67	-270.61
5.432	5.463	1983.29	1983.1558	-33.85	-268.11
5.463	5.493	1983.1558	1983.0216	-33.32	-264.91
5.493	5.523	1983.0216	1982.9015	-33.8	-266.36
5.523	5.554	1982.9015	1982.7841	-34.39	-271.1
5.554	5.584	1982.7841	1982.6667	-34.51	-275.76
5.584	5.615	1982.6667	1982.5492	-32.05	-282.25
5.615	5.645	1982.5492	1982.4318	-35.54	-284.94
5.645	5.676	1982.4318	1982.3144	-35.19	-284.13
5.676	5.706	1982.3144	1982.197	-35.33	-281.35
5.706	5.736	1982.197	1982.0795	-35.1	-277.87
5.736	5.767	1982.0795	1981.9663	-32.16	-273.31
5.767	5.797	1981.9663	1981.862	-34.37	-273.62
5.797	5.828	1981.862	1981.7576	-34.88	-277.93
5.828	5.858	1981.7576	1981.6532	-33.58	-279.69
5.858	5.889	1981.6532	1981.5488	-35.87	-285.37
5.889	5.919	1981.5488	1981.4444	-35.86	-286.73
5.919	5.949	1981.4444	1981.3226	-34.73	-283.55
5.949	5.978	1981.3226	1981.2007	-35.01	-279.25
5.978	6.008	1981.2007	1981.0789	-32.64	-272.9
6.008	6.037	1981.0789	1980.9702	-33.32	-266.49
6.037	6.067	1980.9702	1980.8859	-31.46	-261.59
6.067	6.096	1980.8859	1980.8015	-32.36	-257.66
6.096	6.126	1980.8015	1980.7171	-30.41	-255.29
6.126	6.155	1980.7171	1980.6328	-31.74	-252.41
6.155	6.185	1980.6328	1980.5484	-30.73	-249.96
6.185	6.214	1980.5484	1980.464	-30.89	-247.58
6.214	6.244	1980.464	1980.3797	-29.02	-239.14
6.244	6.273	1980.3797	1980.2953	-28.54	-231.89
6.273	6.303	1980.2953	1980.2109	-28.62	-227.17
6.303	6.332	1980.2109	1980.1266	-28.69	-221.08
6.332	6.362	1980.1266	1980.0422	-27.59	-222.1
6.362	6.391	1980.0422	1979.9502	-27.59	-227.08
6.391	6.421	1979.9502	1979.8504	-24.68	-234.95
6.421	6.45	1979.8504	1979.7507	-31.88	-250.62
6.45	6.48	1979.7507	1979.651	-33.89	-267.89
6.48	6.509	1979.651	1979.5513	-31.13	-287.97
6.509	6.539	1979.5513	1979.4516	-27.97	-302.9
6.539	6.568	1979.4516	1979.3519	-37.01	-315.79
6.568	6.598	1979.3519	1979.2522	-39.53	-320.34
6.598	6.627	1979.2522	1979.1525	-39.4	-317.49
6.627	6.657	1979.1525	1979.0528	-39.56	-314.22
6.657	6.686	1979.0528	1978.9263	-37.35	-307.15
6.686	6.716	1978.9263	1978.7696	-38.13	-301.7
6.716	6.745	1978.7696	1978.6129	-37.12	-295.02
6.745	6.775	1978.6129	1978.4562	-36.1	-286.76
6.775	6.804	1978.4562	1978.2996	-35.21	-279.71
6.804	6.834	1978.2996	1978.1429	-32.61	-271.09
6.834	6.864	1978.1429	1977.992	-34.08	-270.66
6.864	6.894	1977.992	1977.893	-34.32	-272.32
6.894	6.924	1977.893	1977.7941	-34.94	-279.81
6.924	6.954	1977.7941	1977.6952	-35.82	-285.21
6.954	6.984	1977.6952	1977.5963	-36.49	-293.02
6.984	7.014	1977.5963	1977.4973	-36.32	-295.79
7.014	7.044	1977.4973	1977.3984	-37.19	-297.02
7.044	7.074	1977.3984	1977.2995	-37.07	-292.84
7.074	7.104	1977.2995	1977.2005	-36.58	-291.15
7.104	7.134	1977.2005	1977.1016	-36.26	-286.29
7.134	7.164	1977.1016	1977.0027	-35.74	-284.25
7.164	7.194	1977.0027	1976.8824	-36.1	-284.68
7.194	7.224	1976.8824	1976.7614	-36.1	-284.49
7.224	7.254	1976.7614	1976.6405	-36.27	-286.14
7.254	7.284	1976.6405	1976.5196	-36.07	-286.03
7.284	7.314	1976.5196	1976.3987	-35.91	-283.35
7.314	7.344	1976.3987	1976.2778	-34.79	-277.65
7.344	7.374	1976.2778	1976.1569	-34.57	-269.89
7.374	7.404	1976.1569	1976.0359	-33.58	-264.83
7.404	7.434	1976.0359	1975.9044	-33.35	-260.08
7.434	7.464	1975.9044	1975.7684	-33.26	-259.37
7.464	7.494	1975.7684	1975.6324	-33.56	-263.19
7.494	7.524	1975.6324	1975.4963	-33.95	-267.32
7.524	7.554	1975.4963	1975.3603	-33.5	-271.45
7.554	7.584	1975.3603	1975.2243	-34.38	-275.27
7.584	7.614	1975.2243	1975.0882	-34.1	-274.31
7.614	7.644	1975.0882	1974.9618	-33.67	-268.21
7.644	7.674	1974.9618	1974.8529	-33.05	-264.4
7.674	7.704	1974.8529	1974.7441	-32.44	-259.29
7.704	7.734	1974.7441	1974.6353	-31.91	-253.47
7.734	7.764	1974.6353	1974.5265	-31.46	-250.76
7.764	7.794	1974.5265	1974.4176	-31.05	-250.09
7.794	7.824	1974.4176	1974.3088	-31.34	-252.29
7.824	7.854	1974.3088	1974.2	-31.7	-253.84
7.854	7.884	1974.2	1974.0484	-32.45	-261.17
7.884	7.915	1974.0484	1973.871	-33.05	-266.03
7.915	7.945	1973.871	1973.6815	-33.09	-268.99
7.945	7.975	1973.6815	1973.492	-32.46	-270.07
7.975	8.006	1973.492	1973.3024	-33.86	-271.22
8.006	8.036	1973.3024	1973.1129	-33.73	-269.28
8.036	8.066	1973.1129	1972.9489	-33.67	-266.4
8.066	8.097	1972.9489	1972.8226	-33.44	-264.66
8.097	8.127	1972.8226	1972.6963	-33.36	-264.29
8.127	8.157	1972.6963	1972.5699	-33.28	-262.75
8.157	8.188	1972.5699	1972.4436	-32.62	-260.95
8.188	8.218	1972.4436	1972.3172	-32.95	-259.23
8.218	8.248	1972.3172	1972.1909	-32.85	-257.34
8.248	8.279	1972.1909	1972.0645	-32.83	-257.9
8.279	8.309	1972.0645	1971.9382	-32.56	-257.88
8.309	8.339	1971.9382	1971.8119	-34.12	-266.93
8.339	8.369	1971.8119	1971.6855	-35.01	-275.83
8.369	8.4	1971.6855	1971.5592	-35.95	-285.54
8.4	8.43	1971.5592	1971.4328	-36.24	-287.85
8.43	8.46	1971.4328	1971.3065	-36.26	-289.52
8.46	8.491	1971.3065	1971.1802	-35.31	-284.95
8.491	8.521	1971.1802	1971.0538	-34.98	-278.88
8.521	8.551	1971.0538	1970.942	-34.6	-273.58
8.551	8.582	1970.942	1970.8409	-32.96	-268.78
8.582	8.612	1970.8409	1970.7398	-33.74	-268.68
8.612	8.642	1970.7398	1970.6388	-33.42	-267.25
8.642	8.673	1970.6388	1970.5377	-33.8	-268.2
8.673	8.703	1970.5377	1970.4366	-33.85	-266.73
8.703	8.733	1970.4366	1970.3355	-33.72	-264.96
8.733	8.764	1970.3355	1970.2345	-33.03	-263.26
8.764	8.794	1970.2345	1970.1333	-33.42	-264.02
8.794	8.824	1970.1333	1970.0375	-33.63	-263.53
8.824	8.854	1970.0375	1969.9271	-32.74	-265.23
8.854	8.884	1969.9271	1969.8073	-34.05	-268.77
8.884	8.915	1969.8073	1969.6875	-34.03	-270.01
8.915	8.945	1969.6875	1969.5677	-33.65	-266.08
8.945	8.975	1969.5677	1969.4479	-33.5	-262.44
8.975	9.005	1969.4479	1969.3281	-32.03	-258.6
9.005	9.035	1969.3281	1969.2083	-32.32	-253.08
9.035	9.065	1969.2083	1969.0885	-32.17	-250.44
9.065	9.096	1969.0885	1968.9712	-31.95	-248.92
9.096	9.126	1968.9712	1968.8606	-32.18	-251.66
9.126	9.156	1968.8606	1968.75	-32.41	-255.1
9.156	9.186	1968.75	1968.6394	-32.53	-257.65
9.186	9.216	1968.6394	1968.5288	-32.48	-257.78
9.216	9.246	1968.5288	1968.4183	-32.38	-253.66
9.246	9.276	1968.4183	1968.3077	-31.8	-248.96
9.276	9.307	1968.3077	1968.1971	-31.12	-242.05
9.307	9.337	1968.1971	1968.0865	-30.65	-236.7
9.337	9.367	1968.0865	1967.9716	-30.58	-237.04
9.367	9.397	1967.9716	1967.8409	-30.84	-241.56
9.397	9.427	1967.8409	1967.7102	-31.76	-248.63
9.427	9.457	1967.7102	1967.5795	-32.89	-258.87
9.457	9.488	1967.5795	1967.4489	-34.2	-270.75
9.488	9.518	1967.4489	1967.3182	-35.17	-280.07
9.518	9.548	1967.3182	1967.1875	-36.16	-288.69
9.548	9.578	1967.1875	1967.0568	-36.57	-293.26
9.578	9.608	1967.0568	1966.9188	-37.32	-296.86
9.608	9.638	1966.9188	1966.775	-37.52	-296.6
9.638	9.669	1966.775	1966.6313	-37.43	-297.88
9.669	9.699	1966.6313	1966.4875	-36.91	-293.43
9.699	9.729	1966.4875	1966.3437	-36.34	-288.45
9.729	9.759	1966.3437	1966.2	999999	-278.3
9.759	9.788	1966.2	1966.1161	-34.68	-271.99
9.788	9.817	1966.1161	1966.0323	-34.25	-268.18
9.817	9.847	1966.0323	1965.914	-33.93	-265.5
9.847	9.876	1965.914	1965.7742	-33.74	-265.76
9.876	9.905	1965.7742	1965.6344	-33.74	-267.63
9.905	9.934	1965.6344	1965.4946	-33.79	-265.45
9.934	9.964	1965.4946	1965.3548	-33.01	-265.56
9.964	9.993	1965.3548	1965.2151	-33.27	-259.66
9.993	10.022	1965.2151	1965.0753	-31.69	-254.76
10.022	10.051	1965.0753	1964.9226	-32.49	-253.62
10.051	10.08	1964.9226	1964.7548	-30.14	-250.24
10.08	10.11	1964.7548	1964.5871	-32.45	-253.92
10.11	10.139	1964.5871	1964.4194	-32.94	-258.85
10.139	10.168	1964.4194	1964.2516	-33.56	-266.78
10.168	10.197	1964.2516	1964.0839	-34.17	-272.3
10.197	10.227	1964.0839	1963.9534	-34.36	-275.09
10.227	10.256	1963.9534	1963.8602	-34.72	-277.5
10.256	10.285	1963.8602	1963.767	-34.83	-277.75
10.285	10.314	1963.767	1963.6738	-34.67	-274.97
10.314	10.344	1963.6738	1963.5806	-34.5	-275.1
10.344	10.373	1963.5806	1963.4875	-34.6	-274.97
10.373	10.402	1963.4875	1963.3943	-35.15	-278.4
10.402	10.431	1963.3943	1963.3011	-35.18	-280.72
10.431	10.46	1963.3011	1963.2079	-35.16	-278.4
10.46	10.49	1963.2079	1963.1147	-34.98	-276.69
10.49	10.519	1963.1147	1963.0215	-34.62	-273.49
10.519	10.548	1963.0215	1962.9283	-34.15	-269.67
10.548	10.577	1962.9283	1962.8351	-34.07	-266.76
10.577	10.607	1962.8351	1962.7419	-34.16	-266.52
10.607	10.636	1962.7419	1962.6487	-33.94	-271.44
10.636	10.665	1962.6487	1962.5556	-34.63	-271.76
10.665	10.696	1962.5556	1962.4176	-35.23	-277.81
10.696	10.728	1962.4176	1962.2797	-35.47	-283.28
10.728	10.759	1962.2797	1962.1418	-35.82	-287.03
10.759	10.791	1962.1418	1962.0038	-36.57	-287.98
10.791	10.822	1962.0038	1961.8491	-36.49	-288.23
10.822	10.853	1961.8491	1961.694	-35.96	-286.51
10.853	10.885	1961.694	1961.5388	-35.7	-282.06
10.885	10.916	1961.5388	1961.3836	-35.09	-277.84
10.916	10.947	1961.3836	1961.2285	-34.32	-270.67
10.947	10.979	1961.2285	1961.0733	-33.42	-259.5
10.979	11.01	1961.0733	1960.9345	-32.28	-252.65
11.01	11.042	1960.9345	1960.8104	-31.74	-246.38
11.042	11.073	1960.8104	1960.6862	-31.26	-241.89
11.073	11.104	1960.6862	1960.5621	-31.51	-242.81
11.104	11.136	1960.5621	1960.4379	-31.99	-249.74
11.136	11.167	1960.4379	1960.3138	-33.11	-260.47
11.167	11.198	1960.3138	1960.1897	-33.85	-270.6
11.198	11.23	1960.1897	1960.0655	-34.52	-276.37
11.23	11.261	1960.0655	1959.9414	-35.14	-278.69
11.261	11.293	1959.9414	1959.8173	-35.33	-280.48
11.293	11.324	1959.8173	1959.6931	-35.02	-276.88
11.324	11.355	1959.6931	1959.569	-34.66	-273.8
11.355	11.387	1959.569	1959.4449	-34.25	-271.18
11.387	11.418	1959.4449	1959.3207	-33.16	-266.43
11.418	11.449	1959.3207	1959.1966	-33.43	-260.51
11.449	11.481	1959.1966	1959.0724	-33.07	-258.44
11.481	11.512	1959.0724	1958.9677	-32.82	-256.65
11.512	11.544	1958.9677	1958.8901	-32.55	-255.17
11.544	11.575	1958.8901	1958.8125	-32.29	-252.91
11.575	11.605	1958.8125	1958.7386	-32.41	-254.58
11.605	11.635	1958.7386	1958.6648	-32.84	-259.18
11.635	11.665	1958.6648	1958.5909	-32.45	-260.97
11.665	11.696	1958.5909	1958.517	-33.39	-263.48
11.696	11.726	1958.517	1958.4432	-33.52	-266.36
11.726	11.756	1958.4432	1958.3693	-31.86	-261.67
11.756	11.786	1958.3693	1958.2955	-32.95	-260.08
11.786	11.816	1958.2955	1958.2216	-32.41	-257.07
11.816	11.846	1958.2216	1958.1477	-32.07	-251.89
11.846	11.877	1958.1477	1958.0739	-31.6	-247.57
11.877	11.907	1958.0739	1958	-31.05	-244.23
11.907	11.937	1958	1957.9015	-31.19	-244.93
11.937	11.967	1957.9015	1957.803	-31.31	-244.65
11.967	11.997	1957.803	1957.7045	-31.62	-247.5
11.997	12.027	1957.7045	1957.6061	-32.01	-252.55
12.027	12.057	1957.6061	1957.5076	-32.16	-251.53
12.057	12.088	1957.5076	1957.4091	-31.86	-255.34
12.088	12.118	1957.4091	1957.3106	-32.78	-250.73
12.118	12.148	1957.3106	1957.2121	-32.86	999999
12.148	12.178	1957.2121	1957.1136	-33.07	999999
12.178	12.208	1957.1136	1957.0152	-33.13	-263.02
12.208	12.238	1957.0152	1956.9	-33.79	-267.31
12.238	12.268	1956.9	1956.7818	-32.23	-270.2
12.268	12.299	1956.7818	1956.6636	-34.6	-273.05
12.299	12.329	1956.6636	1956.5455	-34.62	-274.81
12.329	12.359	1956.5455	1956.4273	-34.85	-275.69
12.359	12.389	1956.4273	1956.3091	-35.13	-278.69
12.389	12.419	1956.3091	1956.1909	-35.27	-278.64
12.419	12.449	1956.1909	1956.0727	-34.36	-280.28
12.449	12.48	1956.0727	1955.9242	-35.37	-280.97
12.48	12.51	1955.9242	1955.7273	-35.51	-282.34
12.51	12.54	1955.7273	1955.5303	-35.14	-283.37
12.54	12.57	1955.5303	1955.3333	-35.38	-281.55
12.57	12.601	1955.3333	1955.1559	-35.19	-280.45
12.601	12.631	1955.1559	1954.9816	-34.57	-277.69
12.631	12.662	1954.9816	1954.8295	-34.8	-274.93
12.662	12.693	1954.8295	1954.6774	-34.4	-273.69
12.693	12.723	1954.6774	1954.5253	-34.11	-271.82
12.723	12.754	1954.5253	1954.3733	-33.41	-269
12.754	12.785	1954.3733	1954.2212	-33.6	-266.06
12.785	12.815	1954.2212	1954.0691	-32.64	-265.76
12.815	12.846	1954.0691	1953.9274	-33.35	-265.09
12.846	12.876	1953.9274	1953.7944	-33.76	-265.6
12.876	12.907	1953.7944	1953.6613	-33.59	-267.58
12.907	12.938	1953.6613	1953.5282	-33.79	-270.37
12.938	12.968	1953.5282	1953.3952	-34.13	-270.32
12.968	12.999	1953.3952	1953.2621	-34.19	-270.42
12.999	13.03	1953.2621	1953.129	-34.02	-268.32
13.03	13.06	1953.129	1952.9977	-31.28	-266.69
13.06	13.091	1952.9977	1952.9217	-33.57	-263.75
13.091	13.122	1952.9217	1952.8456	-33.52	-263.01
13.122	13.152	1952.8456	1952.7696	-33.48	-264.64
13.152	13.183	1952.7696	1952.6936	-33.67	-266.7
13.183	13.214	1952.6936	1952.6175	-33.88	-269.61
13.214	13.244	1952.6175	1952.5415	-34.3	-274.91
13.244	13.275	1952.5415	1952.4654	-34.44	-273.19
13.275	13.305	1952.4654	1952.3894	-34.43	-274.98
13.305	13.336	1952.3894	1952.3134	-33.3	-272.13
13.336	13.367	1952.3134	1952.2373	-33.3	-269.52
13.367	13.397	1952.2373	1952.1613	-33.47	-264.75
13.397	13.428	1952.1613	1952.0853	-33.27	-261.66
13.428	13.459	1952.0853	1952.0092	-33.19	-261.39
13.459	13.489	1952.0092	1951.915	-33.4	-263.56
13.489	13.52	1951.915	1951.8182	-33.71	-268.62
13.52	13.55	1951.8182	1951.7159	-33.9	-276.72
13.55	13.58	1951.7159	1951.6136	-35.06	-281.53
13.58	13.61	1951.6136	1951.5114	-35.71	-284.03
13.61	13.64	1951.5114	1951.4091	-35.69	-284.28
13.64	13.67	1951.4091	1951.3068	-35.56	-283.85
13.67	13.699	1951.3068	1951.2046	-35.11	-280.82
13.699	13.729	1951.2046	1951.1023	-34.75	-275.81
13.729	13.759	1951.1023	1951	-34.37	-273.69
13.759	13.789	1951	1950.8125	-34.24	-273.27
13.789	13.819	1950.8125	1950.625	-32.68	-271.94
13.819	13.849	1950.625	1950.4375	-33.91	-272.02
13.849	13.879	1950.4375	1950.25	-33.74	-268.66
13.879	13.909	1950.25	1950.0625	-33.8	-268.39
13.909	13.939	1950.0625	1949.9063	-33.63	-267.03
13.939	13.969	1949.9063	1949.7656	-33.55	-265.78
13.969	13.998	1949.7656	1949.625	-32.51	-264.45
13.998	14.028	1949.625	1949.4844	-32.71	-263.74
14.028	14.058	1949.4844	1949.3438	-32.95	-263.93
14.058	14.088	1949.3438	1949.2031	999999	-263.81
14.088	14.118	1949.2031	1949.0625	-33.2	-261.71
14.118	14.148	1949.0625	1948.9306	-32.9	-260.83
14.148	14.178	1948.9306	1948.8056	-32.02	-258.53
14.178	14.208	1948.8056	1948.6806	-31.68	-259.32
14.208	14.238	1948.6806	1948.5556	-33.12	-259.36
14.238	14.268	1948.5556	1948.4306	-33.21	-262.22
14.268	14.298	1948.4306	1948.3056	-33.22	-262.39
14.298	14.327	1948.3056	1948.1806	-33.54	-262.96
14.327	14.357	1948.1806	1948.0556	-33.81	-265.61
14.357	14.387	1948.0556	1947.9108	-34.12	-269.78
14.387	14.417	1947.9108	1947.75	-34.34	-274.59
14.417	14.447	1947.75	1947.5893	-34.69	-278.57
14.447	14.477	1947.5893	1947.4286	-35.26	-279.44
14.477	14.508	1947.4286	1947.2535	-35.18	-281.7
14.508	14.539	1947.2535	1947.0783	-35.51	-281.5
14.539	14.57	1947.0783	1946.9153	-35.13	-278.94
14.57	14.601	1946.9153	1946.7621	-34.36	-273.15
14.601	14.632	1946.7621	1946.6089	-33.88	-269.39
14.632	14.663	1946.6089	1946.4556	-33.93	-269.37
14.663	14.694	1946.4556	1946.3024	-33.69	-266.7
14.694	14.725	1946.3024	1946.1492	-33.3	-265.3
14.725	14.756	1946.1492	1945.9964	-32.91	-261.6
14.756	14.787	1945.9964	1945.8602	-32.52	-254.78
14.787	14.818	1945.8602	1945.724	-32.02	-253
14.818	14.849	1945.724	1945.5878	-31.49	-248.99
14.849	14.88	1945.5878	1945.4516	-31.05	-244.34
14.88	14.911	1945.4516	1945.3154	-30.68	-243.34
14.911	14.942	1945.3154	1945.1792	-30.87	-243.7
14.942	14.972	1945.1792	1945.043	-31.13	-247.32
14.972	15.003	1945.043	1944.9068	-31.61	-250.17
15.003	15.034	1944.9068	1944.7706	-32.09	-254.18
15.034	15.065	1944.7706	1944.6344	-32.56	-258.39
15.065	15.096	1944.6344	1944.4982	-31.96	-260.3
15.096	15.127	1944.4982	1944.362	-33.31	-263.98
15.127	15.158	1944.362	1944.2258	-33.68	-266.38
15.158	15.189	1944.2258	1944.0896	-34.02	-270.3
15.189	15.22	1944.0896	1943.9476	-34.37	-271.76
15.22	15.251	1943.9476	1943.7944	-34.56	-274.49
15.251	15.282	1943.7944	1943.6411	-34.77	-275.51
15.282	15.313	1943.6411	1943.4879	-35.13	-276.75
15.313	15.344	1943.4879	1943.3347	-35.38	-275.9
15.344	15.375	1943.3347	1943.1815	-34.78	-278.12
15.375	15.406	1943.1815	1943.0282	-36	-283.35
15.406	15.437	1943.0282	1942.8889	-36.55	-288.51
15.437	15.467	1942.8889	1942.7614	-36.62	-291.93
15.467	15.496	1942.7614	1942.634	-36.43	-290.09
15.496	15.526	1942.634	1942.5065	-36.1	-286.86
15.526	15.556	1942.5065	1942.3791	-35.56	-280.02
15.556	15.586	1942.3791	1942.2517	-34.36	-274.34
15.586	15.615	1942.2517	1942.1242	-33.72	-265.81
15.615	15.645	1942.1242	1941.9973	-32.8	-261.07
15.645	15.675	1941.9973	1941.8931	-32.68	-258.13
15.675	15.704	1941.8931	1941.7888	-32.58	-257.14
15.704	15.734	1941.7888	1941.6845	-32.65	-262.64
15.734	15.764	1941.6845	1941.5802	-31.75	-260.83
15.764	15.793	1941.5802	1941.476	-32.84	-262.23
15.793	15.823	1941.476	1941.3717	-32.88	-259.99
15.823	15.853	1941.3717	1941.2674	-32.79	-261.6
15.853	15.883	1941.2674	1941.1631	-32.7	-258.74
15.883	15.912	1941.1631	1941.0589	-32.88	-256.67
15.912	15.942	1941.0589	1940.9501	-32.99	-259.1
15.942	15.972	1940.9501	1940.8354	-32.96	-261.3
15.972	16.001	1940.8354	1940.7207	-33.35	-260.39
16.001	16.031	1940.7207	1940.606	-32.87	-264.21
16.031	16.061	1940.606	1940.4912	-33.4	-265.77
16.061	16.091	1940.4912	1940.3765	-33.67	-265.44
16.091	16.12	1940.3765	1940.2618	-33.21	-263.45
16.12	16.15	1940.2618	1940.1471	-33.27	-261.37
16.15	16.18	1940.1471	1940.0324	-33.12	-257.65
16.18	16.209	1940.0324	1939.9252	-32.94	-261.32
16.209	16.239	1939.9252	1939.8209	-33.02	-258.92
16.239	16.269	1939.8209	1939.7167	-32.65	-259.43
16.269	16.298	1939.7167	1939.6124	-33.08	-253.87
16.298	16.328	1939.6124	1939.5081	-33.01	-258.46
16.328	16.358	1939.5081	1939.4038	-32.82	-254.89
16.358	16.388	1939.4038	1939.2996	-32.16	999999
16.388	16.417	1939.2996	1939.1953	-29.34	999999
16.417	16.447	1939.1953	1939.0909	-32.06	-252.63
16.447	16.477	1939.0909	1938.963	-31.14	-249.66
16.477	16.508	1938.963	1938.8148	-31.93	-251.15
16.508	16.538	1938.8148	1938.6667	-31.89	-252.78
16.538	16.568	1938.6667	1938.5185	-31.94	-252.99
16.568	16.599	1938.5185	1938.3704	-31.7	-249.45
16.599	16.629	1938.3704	1938.2222	-31.6	-251.18
16.629	16.659	1938.2222	1938.0741	-31.43	-246.86
16.659	16.689	1938.0741	1937.9487	-30.87	-246.81
16.689	16.72	1937.9487	1937.8462	-31.23	-244.74
16.72	16.75	1937.8462	1937.7436	-31.35	-249.27
16.75	16.78	1937.7436	1937.641	-31.46	-247.81
16.78	16.811	1937.641	1937.5385	-31.96	-256.25
16.811	16.841	1937.5385	1937.4359	-32.33	-257.79
16.841	16.871	1937.4359	1937.3333	-32.85	-262.62
16.871	16.902	1937.3333	1937.2308	-33.05	-260.53
16.902	16.932	1937.2308	1937.1282	-33.46	-265.89
16.932	16.962	1937.1282	1937.0256	-33.22	-265.1
16.962	16.992	1937.0256	1936.9091	-33.57	-266.13
16.992	17.023	1936.9091	1936.7879	-33.66	-266.98
17.023	17.053	1936.7879	1936.6667	-33.63	-263.59
17.053	17.083	1936.6667	1936.5455	-33.04	-259.56
17.083	17.114	1936.5455	1936.4242	-32.55	-253.87
17.114	17.144	1936.4242	1936.303	-32.24	-248.93
17.144	17.174	1936.303	1936.1818	-31.56	-243.28
17.174	17.205	1936.1818	1936.0606	-31.11	-238.37
17.205	17.235	1936.0606	1935.9524	-30.76	-237.11
17.235	17.265	1935.9524	1935.8571	-30.66	-236.22
17.265	17.295	1935.8571	1935.7619	-30.18	-238.42
17.295	17.326	1935.7619	1935.6667	-30.85	-242.67
17.326	17.356	1935.6667	1935.5714	-31.54	-247.79
17.356	17.386	1935.5714	1935.4762	-31.65	-250.78
17.386	17.417	1935.4762	1935.381	-31.86	-250.99
17.417	17.447	1935.381	1935.2857	-31.87	-251.49
17.447	17.477	1935.2857	1935.2098	-32.07	-252.93
17.477	17.507	1935.2098	1935.1339	-31.98	-250.96
17.507	17.537	1935.1339	1935.058	-31.92	-250.92
17.537	17.567	1935.058	1934.975	-31.83	-252.61
17.567	17.597	1934.975	1934.8687	-32.26	-255.08
17.597	17.627	1934.8687	1934.7625	-32.51	-257.21
17.627	17.657	1934.7625	1934.6562	-32.56	-259.57
17.657	17.687	1934.6562	1934.55	-33.02	-262.79
17.687	17.717	1934.55	1934.4438	-33.24	-264.06
17.717	17.747	1934.4438	1934.3375	-33.73	-270.16
17.747	17.777	1934.3375	1934.2313	-34.1	-271.17
17.777	17.807	1934.2313	1934.125	-34.43	-273.67
17.807	17.837	1934.125	1934.0188	-34.73	-276.07
17.837	17.867	1934.0188	1933.9125	-34.8	-278.87
17.867	17.897	1933.9125	1933.8063	-34.65	-276.77
17.897	17.927	1933.8063	1933.7	-34.57	-271.93
17.927	17.957	1933.7	1933.5937	-34.52	-271.97
17.957	17.987	1933.5937	1933.4875	-34.34	-270.55
17.987	18.017	1933.4875	1933.3812	-34.5	-271.16
18.017	18.047	1933.3812	1933.275	-34.07	-273.32
18.047	18.077	1933.275	1933.1687	-34.95	-276.84
18.077	18.107	1933.1687	1933.0625	-34.25	-279.72
18.107	18.137	1933.0625	1932.9271	-35.46	-284.27
18.137	18.167	1932.9271	1932.75	-35.4	-281.34
18.167	18.197	1932.75	1932.5729	-35.26	-280.36
18.197	18.227	1932.5729	1932.3958	-35.28	-277.93
18.227	18.257	1932.3958	1932.2188	-34.41	-277.47
18.257	18.287	1932.2188	1932.0417	-33.3	-275.06
18.287	18.317	1932.0417	1931.8375	-31.38	-269.95
18.317	18.347	1931.8375	1931.625	-31.73	-269.23
18.347	18.377	1931.625	1931.4125	-31.52	-264.16
18.377	18.407	1931.4125	1931.2	-32.91	-260.8
18.407	18.437	1931.2	1931.0364	-31.77	-262.21
18.437	18.468	1931.0364	1930.8939	-32.59	-257.22
18.468	18.498	1930.8939	1930.7576	-32.13	-257.65
18.498	18.529	1930.7576	1930.6212	-32.17	-252.94
18.529	18.559	1930.6212	1930.4848	-31.18	-255.69
18.559	18.59	1930.4848	1930.3485	-32.05	-253.69
18.59	18.62	1930.3485	1930.2121	-31.82	-253.81
18.62	18.651	1930.2121	1930.0758	-31.46	-252.31
18.651	18.681	1930.0758	1929.9481	-32.05	-253.51
18.681	18.712	1929.9481	1929.8312	-32.26	-254.77
18.712	18.742	1929.8312	1929.7143	-32.46	-256.57
18.742	18.772	1929.7143	1929.5974	-32.68	-260.18
18.772	18.803	1929.5974	1929.4805	-33.07	-262.55
18.803	18.833	1929.4805	1929.3636	-33.35	-263.74
18.833	18.864	1929.3636	1929.2468	-33.68	-264.43
18.864	18.894	1929.2468	1929.1299	-33.74	-269
18.894	18.925	1929.1299	1929.013	-34	-272.08
18.925	18.955	1929.013	1928.8788	-34.25	-273.91
18.955	18.986	1928.8788	1928.7424	-34.55	-275.65
18.986	19.016	1928.7424	1928.6061	-34.37	-273.66
19.016	19.047	1928.6061	1928.4697	-34.2	-276.1
19.047	19.077	1928.4697	1928.3333	-32.9	-271.6
19.077	19.107	1928.3333	1928.197	-33.43	-268.73
19.107	19.138	1928.197	1928.0606	-33.14	-264.51
19.138	19.168	1928.0606	1927.9432	-32.82	-260.98
19.168	19.199	1927.9432	1927.8409	-32.49	-259.05
19.199	19.229	1927.8409	1927.7386	-32.33	-255.26
19.229	19.26	1927.7386	1927.6364	-32.49	-258.23
19.26	19.29	1927.6364	1927.5341	-32.55	-259.65
19.29	19.321	1927.5341	1927.4318	-32.86	-258.72
19.321	19.351	1927.4318	1927.3296	-33.19	-261.19
19.351	19.382	1927.3296	1927.2273	-33.53	-263.46
19.382	19.412	1927.2273	1927.125	-32.88	-267.17
19.412	19.441	1927.125	1927.0551	-34.36	-272.94
19.441	19.47	1927.0551	1926.9706	-35.03	-274.8
19.47	19.499	1926.9706	1926.8309	-35.55	-279.25
19.499	19.528	1926.8309	1926.6912	-35.87	-276.47
19.528	19.557	1926.6912	1926.5515	-36.08	-273.03
19.557	19.586	1926.5515	1926.4118	-36.63	999999
19.586	19.615	1926.4118	1926.2721	-36.62	-285.66
19.615	19.644	1926.2721	1926.1324	-36.4	-284.87
19.644	19.673	1926.1324	1925.9941	-36.05	-281.83
19.673	19.702	1925.9941	1925.8824	-35.6	-278.69
19.702	19.731	1925.8824	1925.7706	-35.33	-276.68
19.731	19.76	1925.7706	1925.6588	-34.97	-273.19
19.76	19.789	1925.6588	1925.5471	-34.52	-270.42
19.789	19.818	1925.5471	1925.4353	-33.74	-264.74
19.818	19.847	1925.4353	1925.3235	-33.66	-262.43
19.847	19.876	1925.3235	1925.2118	-33.19	-258.64
19.876	19.904	1925.2118	1925.1	-32.89	-253.65
19.904	19.933	1925.1	1924.9853	-32.48	-253.23
19.933	19.962	1924.9853	1924.8456	-32.51	-253.47
19.962	19.991	1924.8456	1924.7059	-32.71	-258.07
19.991	20.02	1924.7059	1924.5662	-33.02	-257.11
20.02	20.049	1924.5662	1924.4265	-33.17	-259.39
20.049	20.078	1924.4265	1924.2868	-33.14	-261.33
20.078	20.107	1924.2868	1924.1471	-33.25	-262.3
20.107	20.136	1924.1471	1924.0074	-33.19	-261.84
20.136	20.165	1924.0074	1923.8677	-32.88	-260.88
20.165	20.194	1923.8677	1923.728	-32.79	-259.03
20.194	20.223	1923.728	1923.5882	-32.54	-258.47
20.223	20.252	1923.5882	1923.4485	-32.22	-254.69
20.252	20.281	1923.4485	1923.3088	-31.72	-254.53
20.281	20.31	1923.3088	1923.1691	-31.84	-252.8
20.31	20.339	1923.1691	1923.0294	-31.88	-254.22
20.339	20.368	1923.0294	1922.9118	-32.04	-254.94
20.368	20.397	1922.9118	1922.8	-32.21	-255.46
20.397	20.437	1922.8	1922.675	-32.32	-260.66
20.437	20.478	1922.675	1922.55	-33.19	-262.29
20.478	20.518	1922.55	1922.425	-33.81	-270.04
20.518	20.558	1922.425	1922.3	-34.13	-270.81
20.558	20.598	1922.3	1922.175	-34.7	-274.7
20.598	20.639	1922.175	1922.05	-34.94	-275.25
20.639	20.679	1922.05	1921.9063	-35.23	-278.79
20.679	20.719	1921.9063	1921.75	-35.57	-281.07
20.719	20.76	1921.75	1921.5938	-35.14	-282.01
20.76	20.8	1921.5938	1921.4375	-35.47	-280.79
20.8	20.84	1921.4375	1921.2813	-35.82	-282.48
20.84	20.88	1921.2813	1921.125	-35.15	-279.93
20.88	20.921	1921.125	1920.9688	-34.37	-281.16
20.921	20.961	1920.9688	1920.8125	-34.48	-279.34
20.961	21.001	1920.8125	1920.6563	-33.2	-273.57
21.001	21.042	1920.6563	1920.5	-33.38	-270.34
21.042	21.082	1920.5	1920.3438	-33.7	-266.83
21.082	21.122	1920.3438	1920.1875	-33.41	-260.29
21.122	21.163	1920.1875	1920.0313	-33.12	-259.44
21.163	21.203	1920.0313	1919.875	-32.83	-257.03
21.203	21.243	1919.875	1919.7188	-32.22	-256.52
21.243	21.283	1919.7188	1919.5625	-33.13	-259.19
21.283	21.324	1919.5625	1919.4063	-33.26	-263.23
21.324	21.364	1919.4063	1919.25	-33	-265.82
21.364	21.405	1919.25	1919.01	-34.27	-267.53
21.405	21.446	1919.01	1918.816	-34.57	-270.65
21.446	21.488	1918.816	1918.624	-34.8	-275.79
21.488	21.529	1918.624	1918.432	-34.95	-276.75
21.529	21.57	1918.432	1918.24	-34.26	-275.04
21.57	21.611	1918.24	1918.048	-34.25	-275.16
21.611	21.652	1918.048	1917.91	-33.83	-268.51
21.652	21.694	1917.91	1917.79	-33.23	-260.3
21.694	21.735	1917.79	1917.67	-32.62	-259.04
21.735	21.776	1917.67	1917.55	-32.14	-254.09
21.776	21.817	1917.55	1917.43	-32.03	-252.54
21.817	21.858	1917.43	1917.31	-31.43	-250.96
21.858	21.9	1917.31	1917.19	-31.84	-253.27
21.9	21.941	1917.19	1917.07	-31.85	-251.77
21.941	21.982	1917.07	1916.9333	-31.91	-250.41
21.982	22.023	1916.9333	1916.7733	-32.25	-250.73
22.023	22.064	1916.7733	1916.6133	-32.48	-253.11
22.064	22.106	1916.6133	1916.4533	-32.88	-259.9
22.106	22.147	1916.4533	1916.2933	-33.45	-264.16
22.147	22.188	1916.2933	1916.1333	-33.67	-267.41
22.188	22.229	1916.1333	1915.9733	-33.96	-269.54
22.229	22.27	1915.9733	1915.8133	-33.79	-268.76
22.27	22.312	1915.8133	1915.6533	-34.02	-267.4
22.312	22.353	1915.6533	1915.4933	-33.81	-268.12
22.353	22.394	1915.4933	1915.3333	-33.16	-268.55
22.394	22.434	1915.3333	1915.1467	-33.85	-272.71
22.434	22.474	1915.1467	1914.9657	-34.98	-275.6
22.474	22.515	1914.9657	1914.8057	-35.46	-278.6
22.515	22.555	1914.8057	1914.6457	-35.71	-283.04
22.555	22.595	1914.6457	1914.4857	-35.36	-284.48
22.595	22.635	1914.4857	1914.3257	-35.54	-283.38
22.635	22.675	1914.3257	1914.1657	-35.26	-279.3
22.675	22.716	1914.1657	1914.0057	-34.76	-271.99
22.716	22.756	1914.0057	1913.8457	-34.14	-269.26
22.756	22.796	1913.8457	1913.6857	-33.37	-265.99
22.796	22.836	1913.6857	1913.5257	-33.12	-261.71
22.836	22.876	1913.5257	1913.3657	-32.64	-260.4
22.876	22.917	1913.3657	1913.2057	-32.94	-259.42
22.917	22.957	1913.2057	1913.0457	-32.96	-261.45
22.957	22.997	1913.0457	1912.8667	-33.03	-261.71
22.997	23.037	1912.8667	1912.68	-32.87	-260.99
23.037	23.077	1912.68	1912.4933	-32.53	-258.41
23.077	23.118	1912.4933	1912.3067	-32.29	-253.65
23.118	23.158	1912.3067	1912.12	-31.59	-250.65
23.158	23.198	1912.12	1911.9333	-31.43	-248.67
23.198	23.238	1911.9333	1911.7467	-31.54	-249.45
23.238	23.278	1911.7467	1911.56	-31.9	-251.79
23.278	23.319	1911.56	1911.3733	-32.45	-257.87
23.319	23.359	1911.3733	1911.1867	-32.89	-265.11
23.359	23.399	1911.1867	1911	-33.35	-269.31
23.399	23.44	1911	1910.7582	-34.37	-273.44
23.44	23.481	1910.7582	1910.5165	-34.85	-279.86
23.481	23.521	1910.5165	1910.2747	-35.41	-280.3
23.521	23.562	1910.2747	1910.033	-35.4	-282.95
23.562	23.603	1910.033	1909.8539	-35.92	-285.57
23.603	23.644	1909.8539	1909.6846	-36.05	-289.12
23.644	23.684	1909.6846	1909.5154	-36.11	-286.23
23.684	23.725	1909.5154	1909.3462	-35.84	-284.37
23.725	23.766	1909.3462	1909.1769	-35.34	-281.55
23.766	23.807	1909.1769	1909.0077	-34.81	-278.46
23.807	23.847	1909.0077	1908.8757	-34.16	-272.37
23.847	23.888	1908.8757	1908.7456	-33.8	-267.17
23.888	23.929	1908.7456	1908.6154	-33.54	-264.3
23.929	23.97	1908.6154	1908.4852	-33.4	-265.68
23.97	24.011	1908.4852	1908.355	-33.67	-269.26
24.011	24.051	1908.355	1908.2249	-34.33	-270.89
24.051	24.092	1908.2249	1908.0947	-33.17	-276.16
24.092	24.133	1908.0947	1907.9581	-35.05	-279.26
24.133	24.174	1907.9581	1907.8042	-34.23	-280.49
24.174	24.214	1907.8042	1907.6504	-35.28	-283.98
24.214	24.255	1907.6504	1907.4965	-35.64	-282.18
24.255	24.296	1907.4965	1907.3427	-35.56	-284.3
24.296	24.337	1907.3427	1907.1888	-35.32	-280.79
24.337	24.377	1907.1888	1907.035	-35	-273.87
24.377	24.418	1907.035	1906.8693	-34.34	-271.32
24.418	24.459	1906.8693	1906.7	-33.98	-268.73
24.459	24.5	1906.7	1906.5625	-33.47	-265.55
24.5	24.54	1906.5625	1906.425	-32.47	-263.17
24.54	24.581	1906.425	1906.2875	-32.6	-258.92
24.581	24.622	1906.2875	1906.15	-32.51	-254.77
24.622	24.662	1906.15	1906.0125	-32.3	-255.98
24.662	24.703	1906.0125	1905.8438	-32.24	-254.66
24.703	24.743	1905.8438	1905.6719	-32.02	-252.72
24.743	24.784	1905.6719	1905.5	-32.33	-254.16
24.784	24.825	1905.5	1905.3281	-32.69	-258.02
24.825	24.865	1905.3281	1905.1562	-32.87	-261.94
24.865	24.906	1905.1562	1904.9821	-33.71	-267.79
24.906	24.947	1904.9821	1904.7857	-34.25	-275.22
24.947	24.987	1904.7857	1904.5893	-34.99	-279.14
24.987	25.028	1904.5893	1904.3929	-35.16	-279.55
25.028	25.068	1904.3929	1904.1964	-34.78	-283.44
25.068	25.109	1904.1964	1904	-34.69	-279.23
25.109	25.15	1904	1903.8036	-35.11	-275.94
25.15	25.19	1903.8036	1903.6071	-34.74	-276.59
25.19	25.231	1903.6071	1903.4107	-33.93	-276.95
25.231	25.272	1903.4107	1903.2143	-33.92	-275.18
25.272	25.312	1903.2143	1903.0179	-34.44	-269.68
25.312	25.353	1903.0179	1902.875	-33.66	-266.9
25.353	25.393	1902.875	1902.7375	-33.59	-262.97
25.393	25.434	1902.7375	1902.6	-33.21	-260.59
25.434	25.474	1902.6	1902.464	-32.7	-256.25
25.474	25.514	1902.464	1902.328	-32.43	-244.03
25.514	25.554	1902.328	1902.192	-31.93	-255.04
25.554	25.594	1902.192	1902.056	-32.7	-272.67
25.594	25.634	1902.056	1901.9	-32.91	999999
25.634	25.674	1901.9	1901.73	-33.09	999999
25.674	25.714	1901.73	1901.56	-33.6	-266.81
25.714	25.754	1901.56	1901.39	-33.97	-268.2
25.754	25.794	1901.39	1901.22	-33.74	-272.87
25.794	25.834	1901.22	1901.05	-31.23	999999
25.834	25.874	1901.05	1900.8933	-32.75	-272.57
25.874	25.914	1900.8933	1900.7422	-34.62	-273.51
25.914	25.954	1900.7422	1900.5911	-34.26	-273.38
25.954	25.994	1900.5911	1900.44	-33.87	-269.84
25.994	26.034	1900.44	1900.2889	-33.14	-264.04
26.034	26.074	1900.2889	1900.1378	-32.32	-254.12
26.074	26.114	1900.1378	1899.98	-31.45	-249.69
26.114	26.154	1899.98	1899.7533	-30.77	-241.94
26.154	26.194	1899.7533	1899.5267	-30.56	-243.15
26.194	26.234	1899.5267	1899.3	-30	-237.74
26.234	26.274	1899.3	1899.0733	-30.53	-242.05
26.274	26.314	1899.0733	1898.816	-30.85	-242.51
26.314	26.354	1898.816	1898.544	-31.16	-246.2
26.354	26.394	1898.544	1898.272	-31.48	-246.57
26.394	26.434	1898.272	1898	-30.55	-250.07
26.434	26.476	1898	1897.7215	-31.91	-252.11
26.476	26.518	1897.7215	1897.443	-32.07	-252.56
26.518	26.56	1897.443	1897.1645	-31.98	-253.2
26.56	26.602	1897.1645	1896.886	-32.01	-257.22
26.602	26.644	1896.886	1896.6074	-33.09	-264.49
26.644	26.687	1896.6074	1896.3289	-32.92	-265.2
26.687	26.729	1896.3289	1896.0504	-32.58	-264.65
26.729	26.771	1896.0504	1895.8099	-33.46	-267.2
26.771	26.813	1895.8099	1895.5778	-33.44	-267.04
26.813	26.855	1895.5778	1895.3457	-34.03	-268.79
26.855	26.897	1895.3457	1895.1137	-33.35	-270.64
26.897	26.939	1895.1137	1894.8985	-34.16	-270.85
26.939	26.981	1894.8985	1894.6995	-34.57	-272.02
26.981	27.023	1894.6995	1894.5006	-34.8	-276.15
27.023	27.065	1894.5006	1894.3017	-35.11	-279.55
27.065	27.107	1894.3017	1894.1027	-35.81	-280.83
27.107	27.15	1894.1027	1893.9038	-36.11	-285.85
27.15	27.192	1893.9038	1893.7049	-36.2	-286.12
27.192	27.234	1893.7049	1893.5059	-36.13	-286.49
27.234	27.276	1893.5059	1893.307	-34.2	-281.37
27.276	27.318	1893.307	1893.1081	-35.76	-282.55
27.318	27.36	1893.1081	1892.9091	-34.46	-277.06
27.36	27.371	1892.9091	1892.8571	-34.92	-272.36
27.371	27.411	1892.8571	1892.6978	-34.73	-274.66
27.411	27.45	1892.6978	1892.5385	-34.55	-274.54
27.45	27.49	1892.5385	1892.3791	-35.28	-279.04
27.49	27.529	1892.3791	1892.2198	-35.23	-279.94
27.529	27.569	1892.2198	1892.0604	-35.91	-283.49
27.569	27.608	1892.0604	1891.8616	-35.98	-283.87
27.608	27.648	1891.8616	1891.6385	-35.58	-286.9
27.648	27.687	1891.6385	1891.4154	-35.96	-287.64
27.687	27.727	1891.4154	1891.1923	-35.76	-284.47
27.727	27.766	1891.1923	1890.9616	-35.17	-276.31
27.766	27.806	1890.9616	1890.6827	-34.33	-272.57
27.806	27.845	1890.6827	1890.4039	-33.57	-265.94
27.845	27.885	1890.4039	1890.125	-33.24	-260.69
27.885	27.925	1890.125	1889.877	-32.86	-257.4
27.925	27.964	1889.877	1889.6539	-32.55	-257.39
27.964	28.004	1889.6539	1889.4308	-33.1	-260.05
28.004	28.043	1889.4308	1889.2077	-33.24	-264.61
28.043	28.083	1889.2077	1888.9847	-33.36	-265.93
28.083	28.122	1888.9847	1888.7616	-34.07	-268.3
28.122	28.162	1888.7616	1888.5385	-34.22	-269.28
28.162	28.201	1888.5385	1888.3154	-33.95	-269.46
28.201	28.241	1888.3154	1888.0924	-33.74	-265.18
28.241	28.28	1888.0924	1887.9455	-33.08	-263.4
28.28	28.32	1887.9455	1887.8526	-33.16	-260.06
28.32	28.359	1887.8526	1887.7596	-33.11	-256.97
28.359	28.399	1887.7596	1887.6667	-32.3	-259.78
28.399	28.439	1887.6667	1887.5151	-33.29	-261.18
28.439	28.48	1887.5151	1887.3636	-32.96	-263.7
28.48	28.52	1887.3636	1887.212	-33.58	-263.39
28.52	28.56	1887.212	1887.0605	-33.77	-264.09
28.56	28.6	1887.0605	1886.8907	-33.97	-267.48
28.6	28.641	1886.8907	1886.7089	-34.13	-272.76
28.641	28.681	1886.7089	1886.527	-34.9	-275.21
28.681	28.721	1886.527	1886.3452	-35.06	-278.43
28.721	28.761	1886.3452	1886.1633	-35.31	-277.87
28.761	28.802	1886.1633	1885.9768	-35.03	-278.31
28.802	28.842	1885.9768	1885.7495	-34.68	-275.56
28.842	28.882	1885.7495	1885.5222	-34.19	-269
28.882	28.922	1885.5222	1885.2949	-33.82	-265.77
28.922	28.963	1885.2949	1885.0676	-34.04	-265.52
28.963	29.003	1885.0676	1884.8403	-33.76	-263.05
29.003	29.043	1884.8403	1884.613	-33.29	-261.31
29.043	29.083	1884.613	1884.3856	-33.3	-261.42
29.083	29.124	1884.3856	1884.1583	-32.53	-256.68
29.124	29.164	1884.1583	1883.9448	-32.36	-253.71
29.164	29.204	1883.9448	1883.763	-31.29	-249.59
29.204	29.244	1883.763	1883.5811	-31.55	-250.66
29.244	29.285	1883.5811	1883.3992	-31.97	-250.59
29.285	29.325	1883.3992	1883.2174	-31.99	-250.47
29.325	29.365	1883.2174	1883.0355	-32.1	-250.84
29.365	29.395	1883.0355	1882.8889	-32.06	-253
29.395	29.434	1882.8889	1882.7151	999999	-254.06
29.434	29.473	1882.7151	1882.5412	-32.98	-260.3
29.473	29.511	1882.5412	1882.3674	-32.96	-261.41
29.511	29.55	1882.3674	1882.1936	-33.33	-260.75
29.55	29.589	1882.1936	1882.0197	-31.81	-262.74
29.589	29.628	1882.0197	1881.8019	-33.21	-262.39
29.628	29.666	1881.8019	1881.5784	-31.4	-261.01
29.666	29.705	1881.5784	1881.3549	-33.4	-262.42
29.705	29.744	1881.3549	1881.1314	-33.36	-262.45
29.744	29.783	1881.1314	1880.9079	-33.19	-264.74
29.783	29.822	1880.9079	1880.6844	-33.78	-265.52
29.822	29.86	1880.6844	1880.4609	-34.17	-271.07
29.86	29.899	1880.4609	1880.2374	-34.57	-273.21
29.899	29.938	1880.2374	1880.0139	-34.02	-275.1
29.938	29.977	1880.0139	1879.8166	-35.37	-278.86
29.977	30.016	1879.8166	1879.621	-34.77	-279.07
30.016	30.054	1879.621	1879.4254	-35.25	-282.38
30.054	30.093	1879.4254	1879.2299	-34.51	-279.81
30.093	30.132	1879.2299	1879.0343	-35.52	-282.63
30.132	30.171	1879.0343	1878.871	-35.93	-282.81
30.171	30.209	1878.871	1878.7146	-34.26	-280.49
30.209	30.248	1878.7146	1878.5581	-35.38	-280.86
30.248	30.287	1878.5581	1878.4017	-34.6	-278.85
30.287	30.337	1878.4017	1878.2	-33.64	-269.55
30.337	30.378	1878.2	1878.0333	-33.78	-263.19
30.378	30.42	1878.0333	1877.8889	-32.85	-260.16
30.42	30.461	1877.8889	1877.75	-32.69	-252.56
30.461	30.502	1877.75	1877.6111	-32.01	999999
30.502	30.543	1877.6111	1877.4722	-31.78	999999
30.543	30.585	1877.4722	1877.3333	-30.53	-244.81
30.585	30.626	1877.3333	1877.1944	-31.17	-246.68
30.626	30.667	1877.1944	1877.0556	-30.66	-245.78
30.667	30.708	1877.0556	1876.8889	-30.01	-245.98
30.708	30.75	1876.8889	1876.7037	-31.05	-251.15
30.75	30.791	1876.7037	1876.5185	-32.52	-254.79
30.791	30.832	1876.5185	1876.3333	-32.51	-258.77
30.832	30.873	1876.3333	1876.1481	-32.51	-262.41
30.873	30.915	1876.1481	1875.9583	-33.68	-266.56
30.915	30.956	1875.9583	1875.75	-33.83	-269.45
30.956	30.997	1875.75	1875.5417	-34.75	-272.62
30.997	31.038	1875.5417	1875.3333	-34.02	-277.19
31.038	31.08	1875.3333	1875.125	-34.29	-280.42
31.08	31.121	1875.125	1874.9048	-35.82	-285.93
31.121	31.162	1874.9048	1874.6667	-36.1	-285.67
31.162	31.203	1874.6667	1874.4286	-35.78	-286.37
31.203	31.245	1874.4286	1874.1905	-35.51	-284.04
31.245	31.286	1874.1905	1873.9524	-35.44	-281.12
31.286	31.327	1873.9524	1873.7143	-34.06	-275.52
31.327	31.367	1873.7143	1873.4719	-33.92	-270.4
31.367	31.407	1873.4719	1873.2294	-33.75	-264.06
31.407	31.447	1873.2294	1872.987	-33.14	-263.63
31.447	31.487	1872.987	1872.7446	-33.53	-264.26
31.487	31.527	1872.7446	1872.5022	-32.66	-263.32
31.527	31.567	1872.5022	1872.2597	-33.61	-265.51
31.567	31.607	1872.2597	1872.0173	-34.1	-268.22
31.607	31.647	1872.0173	1871.7374	-33	-270.32
31.647	31.687	1871.7374	1871.4545	-33.31	-272.08
31.687	31.727	1871.4545	1871.1717	-34.21	-275.61
31.727	31.767	1871.1717	1870.9167	-34.96	-277.44
31.767	31.807	1870.9167	1870.7045	-35.35	-278.83
31.807	31.847	1870.7045	1870.4924	-35.79	-283.19
31.847	31.887	1870.4924	1870.2803	-35.11	-284.25
31.887	31.927	1870.2803	1870.0682	-35.42	-284.14
31.927	31.967	1870.0682	1869.8561	-35.75	-280.61
31.967	32.007	1869.8561	1869.6439	-35.55	-281.52
32.007	32.047	1869.6439	1869.4318	-33.64	-280
32.047	32.087	1869.4318	1869.2197	-35.11	-278.54
32.087	32.127	1869.2197	1869.0076	-34.87	-276.02
32.127	32.167	1869.0076	1868.7662	-34.74	-273.58
32.167	32.207	1868.7662	1868.5238	-34.26	-271.3
32.207	32.247	1868.5238	1868.2814	-33.88	-267.16
32.247	32.287	1868.2814	1868.039	-33.37	-265.89
32.287	32.317	1868.039	1867.8571	-33.51	-264.77
32.317	32.358	1867.8571	1867.6705	-32.68	-261.94
32.358	32.399	1867.6705	1867.4838	-33.62	-261.67
32.399	32.439	1867.4838	1867.2971	-33.67	-264.6
32.439	32.48	1867.2971	1867.1105	-33.7	-263.74
32.48	32.521	1867.1105	1866.9111	-33.09	-265.76
32.521	32.562	1866.9111	1866.6933	-33.39	-265.2
32.562	32.603	1866.6933	1866.4756	-32.45	-267.09
32.603	32.644	1866.4756	1866.2578	-33.13	-267.73
32.644	32.684	1866.2578	1866.04	-34.12	-269.68
32.684	32.725	1866.04	1865.7867	-33.61	-270.08
32.725	32.766	1865.7867	1865.5254	-33.62	-268.91
32.766	32.807	1865.5254	1865.264	-33.75	-266.19
32.807	32.848	1865.264	1865.0027	-33.67	-267.56
32.848	32.889	1865.0027	1864.8384	-33.71	-266.22
32.889	32.929	1864.8384	1864.675	-33.58	-266.66
32.929	32.97	1864.675	1864.5117	-33.72	-266.74
32.97	33.011	1864.5117	1864.3484	-33.42	-267.05
33.011	33.052	1864.3484	1864.185	-33.89	-266.03
33.052	33.093	1864.185	1864.0217	-31.3	-264.76
33.093	33.134	1864.0217	1863.8381	-31.58	-264.52
33.134	33.174	1863.8381	1863.6515	-33.88	-265.73
33.174	33.215	1863.6515	1863.4648	-33.81	-265.33
33.215	33.256	1863.4648	1863.2781	-32.76	-267.47
33.256	33.297	1863.2781	1863.0914	-34.67	-270.33
33.297	33.317	1863.0914	1863	-34.86	-272.6
33.317	33.357	1863	1862.736	-35.47	-278.52
33.357	33.397	1862.736	1862.472	-35.74	-282
33.397	33.437	1862.472	1862.208	-35.59	-284.57
33.437	33.477	1862.208	1861.965	-36.13	-285.15
33.477	33.517	1861.965	1861.8	-35.24	-284.69
33.517	33.557	1861.8	1861.635	-35.65	-282.55
33.557	33.597	1861.635	1861.47	-34.95	-279.53
33.597	33.637	1861.47	1861.305	-35.01	-275.12
33.637	33.677	1861.305	1861.14	-34.57	-273.46
33.677	33.717	1861.14	1860.9714	-33.96	-268.56
33.717	33.757	1860.9714	1860.7829	-33.42	-265.52
33.757	33.797	1860.7829	1860.5943	-33.16	-261.82
33.797	33.837	1860.5943	1860.4057	-33.05	-259.76
33.837	33.877	1860.4057	1860.2171	-31.85	-258.13
33.877	33.917	1860.2171	1860.0286	-32.6	-255.92
33.917	33.957	1860.0286	1859.84	-31.74	-255.73
33.957	33.997	1859.84	1859.6514	-32.48	-256.13
33.997	34.037	1859.6514	1859.4629	-32.91	-258.09
34.037	34.077	1859.4629	1859.2743	-33.04	-258.21
34.077	34.117	1859.2743	1859.0857	-33.29	-260.22
34.117	34.157	1859.0857	1858.88	-33.6	-262.51
34.157	34.197	1858.88	1858.66	-33.53	-264.96
34.197	34.237	1858.66	1858.44	-34.15	-267.54
34.237	34.277	1858.44	1858.22	-34.45	-269.55
34.277	34.317	1858.22	1858	-34.49	-272.11
34.317	34.357	1858	1857.8267	-34.4	-272.9
34.357	34.397	1857.8267	1857.6533	-34.36	-272.03
34.397	34.437	1857.6533	1857.48	-34.18	-271.23
34.437	34.477	1857.48	1857.3067	-33.67	-265.88
34.477	34.517	1857.3067	1857.1333	-33.06	-261.29
34.517	34.557	1857.1333	1856.964	-31.54	-257.35
34.557	34.597	1856.964	1856.808	-32.38	-254.8
34.597	34.637	1856.808	1856.652	-32.1	-254.27
34.637	34.677	1856.652	1856.496	-32.28	-255.63
34.677	34.717	1856.496	1856.34	-31.78	-257.69
34.717	34.757	1856.34	1856.184	-32.51	-257.97
34.757	34.797	1856.184	1856.028	-32.51	-257.8
34.797	34.837	1856.028	1855.8578	-32.62	-258.89
34.837	34.877	1855.8578	1855.6844	-32.57	-257.77
34.877	34.917	1855.6844	1855.5111	-32.19	-256.88
34.917	34.957	1855.5111	1855.3378	-31.73	-255.2
34.957	34.997	1855.3378	1855.1644	-32.15	-254.23
34.997	35.037	1855.1644	1854.9927	-31.98	-253.23
35.037	35.077	1854.9927	1854.8509	-31.28	-252.89
35.077	35.117	1854.8509	1854.7091	-31.19	-254.53
35.117	35.157	1854.7091	1854.5673	-32.62	-257.61
35.157	35.197	1854.5673	1854.4255	-31.29	-259.51
35.197	35.237	1854.4255	1854.2836	-32.64	-265.24
35.237	35.277	1854.2836	1854.1418	-33.06	-269.68
35.277	35.317	1854.1418	1854	-34.25	-272.07
35.317	35.357	1854	1853.7736	-34.76	-274.84
35.357	35.398	1853.7736	1853.5473	-35.06	-277.28
35.398	35.438	1853.5473	1853.3209	-34.94	-278.36
35.438	35.478	1853.3209	1853.0945	-35.02	-279.35
35.478	35.519	1853.0945	1852.8242	-35.19	-278.43
35.519	35.559	1852.8242	1852.5224	-34.28	-276.78
35.559	35.599	1852.5224	1852.2206	-34.86	-276.04
35.599	35.639	1852.2206	1851.9594	-34.92	-273.36
35.639	35.68	1851.9594	1851.8085	-34.43	-272.57
35.68	35.72	1851.8085	1851.6575	-34.11	-270.3
35.72	35.76	1851.6575	1851.5066	-34.22	-269.32
35.76	35.801	1851.5066	1851.3557	-34.09	-267.5
35.801	35.841	1851.3557	1851.2048	-32.9	-267.92
35.841	35.881	1851.2048	1851.0539	-33.58	-266.95
35.881	35.922	1851.0539	1850.8836	-33.65	-265.8
35.922	35.962	1850.8836	1850.7025	-33.37	-263.76
35.962	36.002	1850.7025	1850.5214	-32.96	-261.55
36.002	36.042	1850.5214	1850.3403	-32.7	-259.28
36.042	36.083	1850.3403	1850.1592	-32.65	-259.04
36.083	36.123	1850.1592	1849.9726	-33	-259.78
36.123	36.163	1849.9726	1849.7463	-33.41	-263.54
36.163	36.204	1849.7463	1849.5199	-33.59	-265.58
36.204	36.244	1849.5199	1849.2935	-34.02	-270.72
36.244	36.274	1849.2935	1849.125	-34.18	-272.71
36.274	36.314	1849.125	1848.9341	-33.9	-274.02
36.314	36.355	1848.9341	1848.7572	-32.85	-261.24
36.355	36.395	1848.7572	1848.5802	-32.84	-260.54
36.395	36.436	1848.5802	1848.4032	-32.6	-260.08
36.436	36.476	1848.4032	1848.2263	-32.78	-258.98
36.476	36.516	1848.2263	1848.0493	-32.91	-260.58
36.516	36.557	1848.0493	1847.8564	-33.07	-263.22
36.557	36.597	1847.8564	1847.6573	-32.51	-264.61
36.597	36.638	1847.6573	1847.4582	-33.74	-268.88
36.638	36.678	1847.4582	1847.2591	-34.03	-271
36.678	36.718	1847.2591	1847.06	-34.19	-273.39
36.718	36.759	1847.06	1846.8888	-32.45	-265.72
36.759	36.799	1846.8888	1846.7295	-33.12	-263.52
36.799	36.84	1846.7295	1846.5702	-33.27	-264.11
36.84	36.88	1846.5702	1846.411	-33.21	-266.04
36.88	36.92	1846.411	1846.2517	-33.75	-267.15
36.92	36.961	1846.2517	1846.0924	-33.54	-269.94
36.961	37.001	1846.0924	1845.9045	-34.14	-270.02
37.001	37.042	1845.9045	1845.677	-33.82	-272.05
37.042	37.082	1845.677	1845.4495	-34.37	-274.5
37.082	37.122	1845.4495	1845.2219	-34.42	-273.59
37.122	37.163	1845.2219	1844.9964	-32.93	-260.96
37.163	37.203	1844.9964	1844.8516	-34.37	-270.51
37.203	37.244	1844.8516	1844.7069	-34.22	-271.74
37.244	37.284	1844.7069	1844.5621	-33.95	-269.98
37.284	37.314	1844.5621	1844.4545	-33.94	-267.9
37.314	37.353	1844.4545	1844.3068	-33.22	-263.14
37.353	37.392	1844.3068	1844.1591	-33.17	-268.29
37.392	37.431	1844.1591	1844.0114	-32.85	-266.12
37.431	37.47	1844.0114	1843.875	-32.56	-265.82
37.47	37.509	1843.875	1843.7396	-32.74	-266.27
37.509	37.548	1843.7396	1843.6042	-32.71	-270.23
37.548	37.587	1843.6042	1843.4688	-33.12	-273.59
37.587	37.626	1843.4688	1843.3333	-33.43	-267.44
37.626	37.665	1843.3333	1843.1979	-33.58	-265.05
37.665	37.704	1843.1979	1843.0625	-34.88	-278.24
37.704	37.743	1843.0625	1842.9028	-35.12	-280.34
37.743	37.781	1842.9028	1842.7222	-34.22	-278.86
37.781	37.82	1842.7222	1842.5417	-34.1	-278.21
37.82	37.859	1842.5417	1842.3611	-32.61	999999
37.859	37.898	1842.3611	1842.1806	-34.03	-271.73
37.898	37.937	1842.1806	1842	-34.42	-261.24
37.937	37.976	1842	1841.7292	-34.19	-259.26
37.976	38.015	1841.7292	1841.4584	-33.67	-257.37
38.015	38.054	1841.4584	1841.1875	-33.54	-255.94
38.054	38.093	1841.1875	1840.9167	-32.23	-257.08
38.093	38.132	1840.9167	1840.6459	-33.51	-259.17
38.132	38.171	1840.6459	1840.3751	-34.41	-286.32
38.171	38.21	1840.3751	1840.1042	-33.74	-284.71
38.21	38.249	1840.1042	1839.8	-33.07	-283.33
38.249	38.289	1839.8	1839.5043	-34.61	-280.37
38.289	38.328	1839.5043	1839.2087	-34.59	-276.76
38.328	38.368	1839.2087	1838.9517	-34.38	-270.73
38.368	38.407	1838.9517	1838.7874	-33.9	-266.8
38.407	38.447	1838.7874	1838.6232	-33.63	-264.96
38.447	38.486	1838.6232	1838.4589	-33.07	-262.44
38.486	38.526	1838.4589	1838.2947	-32.8	-257.28
38.526	38.566	1838.2947	1838.1304	-32.42	-251.12
38.566	38.605	1838.1304	1837.9696	-31.87	-249.45
38.605	38.645	1837.9696	1837.8217	-31.69	-247.73
38.645	38.684	1837.8217	1837.6739	-31.5	-245.88
38.684	38.724	1837.6739	1837.5261	-31.24	-246.51
38.724	38.763	1837.5261	1837.3783	-31.72	-249.42
38.763	38.803	1837.3783	1837.2304	-31.62	-250.37
38.803	38.842	1837.2304	1837.0826	-32.39	-254.6
38.842	38.882	1837.0826	1836.9457	-32.81	-258.13
38.882	38.922	1836.9457	1836.8225	-33.2	-262.62
38.922	38.961	1836.8225	1836.6993	-33.7	-263.88
38.961	39.001	1836.6993	1836.5761	-34.14	-269.07
39.001	39.04	1836.5761	1836.4529	-34.25	999999
39.04	39.08	1836.4529	1836.3297	-34.09	-268.98
39.08	39.119	1836.3297	1836.2065	-34	-268.96
39.119	39.159	1836.2065	1836.0833	-33.81	-277.53
39.159	39.199	1836.0833	1835.956	-33.28	-271.36
39.199	39.239	1835.956	1835.812	-32.93	-266.72
39.239	39.279	1835.812	1835.668	-32.74	-263.65
39.279	39.319	1835.668	1835.524	-32.37	-257.93
39.319	39.358	1835.524	1835.38	-31.86	-250.11
39.358	39.398	1835.38	1835.236	-31.28	-246.96
39.398	39.438	1835.236	1835.092	-31.06	-244.39
39.438	39.478	1835.092	1834.948	-30.85	-241.71
39.478	39.518	1834.948	1834.804	-30.89	-242.59
39.518	39.558	1834.804	1834.66	-31.49	-245.96
39.558	39.598	1834.66	1834.516	-31.86	-250.57
39.598	39.638	1834.516	1834.372	-32.18	-252.66
39.638	39.677	1834.372	1834.228	-32.53	-255.72
39.677	39.717	1834.228	1834.084	-32.81	999999
39.717	39.757	1834.084	1833.9143	-33.15	-259.24
39.757	39.797	1833.9143	1833.7086	-33.36	-262.33
39.797	39.837	1833.7086	1833.5029	-33.55	-265.31
39.837	39.877	1833.5029	1833.2971	-33.96	-266.49
39.877	39.917	1833.2971	1833.0914	-34.08	-266.76
39.917	39.957	1833.0914	1832.8667	-34.08	-270.61
39.957	39.996	1832.8667	1832.6267	-34.54	-272.77
39.996	40.036	1832.6267	1832.3867	-34.47	-274.54
40.036	40.076	1832.3867	1832.1467	-34.85	-275.68
40.076	40.116	1832.1467	1831.92	-35.36	-279.84
40.116	40.156	1831.92	1831.7143	-35.2	-277.95
40.156	40.197	1831.7143	1831.5065	-35.34	-281.02
40.197	40.238	1831.5065	1831.2987	-35.19	-281.21
40.238	40.279	1831.2987	1831.0909	-34.94	-278.03
40.279	40.32	1831.0909	1830.9091	-34.62	-275.92
40.32	40.361	1830.9091	1830.7475	-34.35	-273.28
40.361	40.401	1830.7475	1830.5859	-33.58	-270.44
40.401	40.442	1830.5859	1830.4242	-33.52	-268.18
40.442	40.483	1830.4242	1830.2626	-33.8	-267.7
40.483	40.524	1830.2626	1830.101	-33.78	-267.27
40.524	40.565	1830.101	1829.9221	-33.94	-267.6
40.565	40.606	1829.9221	1829.7143	-33.93	-269.24
40.606	40.647	1829.7143	1829.5065	-34.05	-269.92
40.647	40.688	1829.5065	1829.2987	-34.08	-268.85
40.688	40.729	1829.2987	1829.0909	-33.98	-269
40.729	40.77	1829.0909	1828.8977	-33.82	-267.09
40.77	40.811	1828.8977	1828.7159	-33.77	-266.93
40.811	40.851	1828.7159	1828.5341	-33.85	-267.2
40.851	40.892	1828.5341	1828.3523	-33.74	-265.6
40.892	40.933	1828.3523	1828.1705	-33.58	-265.52
40.933	40.974	1828.1705	1827.9886	-33.87	-265.57
40.974	41.015	1827.9886	1827.8068	-33.92	-268
41.015	41.056	1827.8068	1827.625	-34.1	-270.17
41.056	41.096	1827.625	1827.4375	-34	-270.74
41.096	41.135	1827.4375	1827.25	-33.88	-268.6
41.135	41.175	1827.25	1827.0625	-33.37	-264
41.175	41.214	1827.0625	1826.875	-32.88	-260.17
41.214	41.254	1826.875	1826.6875	-32.33	-254.73
41.254	41.293	1826.6875	1826.5	-31.89	-252.51
41.293	41.333	1826.5	1826.3125	-31.89	-250.77
41.333	41.373	1826.3125	1826.125	-32.01	-252.1
41.373	41.412	1826.125	1825.9445	-32.53	-258.03
41.412	41.452	1825.9445	1825.7778	-33.01	-262.12
41.452	41.491	1825.7778	1825.6111	-33.75	-266.45
41.491	41.531	1825.6111	1825.4445	-33.96	-269.57
41.531	41.571	1825.4445	1825.2778	-34.27	-270.57
41.571	41.61	1825.2778	1825.1111	-34.44	-272.05
41.61	41.65	1825.1111	1824.9445	-34.49	-273.1
41.65	41.689	1824.9445	1824.7778	-34.48	-272.56
41.689	41.729	1824.7778	1824.6111	-34.47	-271.49
41.729	41.768	1824.6111	1824.4445	-34.43	-269.76
41.768	41.808	1824.4445	1824.2778	-34.25	-269.01
41.808	41.848	1824.2778	1824.1111	-33.93	-265.99
41.848	41.887	1824.1111	1823.9286	-33.78	-264.72
41.887	41.927	1823.9286	1823.7143	-33.45	-261.36
41.927	41.966	1823.7143	1823.5	-33.33	-259.28
41.966	42.006	1823.5	1823.2858	-33.21	-260.28
42.006	42.046	1823.2858	1823.08	-33.38	-260.68
42.046	42.086	1823.08	1822.8534	-33.44	-263.89
42.086	42.126	1822.8534	1822.6134	-34.31	-268.26
42.126	42.166	1822.6134	1822.3734	-34.72	-273.92
42.166	42.206	1822.3734	1822.1334	-35.42	-280.26
42.206	42.246	1822.1334	1821.9086	-35.84	-284.47
42.246	42.286	1821.9086	1821.7029	-36.16	-286.34
42.286	42.326	1821.7029	1821.4972	-36.17	-287.22
42.326	42.366	1821.4972	1821.2915	-35.8	-284.39
42.366	42.406	1821.2915	1821.0858	-35.54	-281.4
42.406	42.446	1821.0858	1820.86	-34.95	-274.85
42.446	42.486	1820.86	1820.62	-34.14	-268.44
42.486	42.526	1820.62	1820.38	-33.64	-264.22
42.526	42.566	1820.38	1820.14	-33.24	-259.86
42.566	42.606	1820.14	1819.8801	-32.83	-258.96
42.606	42.646	1819.8801	1819.5921	-32.47	-254.81
42.646	42.686	1819.5921	1819.3041	-32.1	-252.53
42.686	42.726	1819.3041	1819.0161	-31.89	-251.77
42.726	42.766	1819.0161	1818.8058	-31.68	-251.29
42.766	42.806	1818.8058	1818.6	-31.89	-250.88
42.806	42.846	1818.6	1818.3943	-32.11	-254.09
42.846	42.886	1818.3943	1818.1886	-32.34	-254.49
42.886	42.926	1818.1886	1817.9761	-32.62	-257.57
42.926	42.966	1817.9761	1817.6881	-32.71	-259.57
42.966	43.006	1817.6881	1817.4	-33.11	-263
43.006	43.046	1817.4	1817.112	-33.37	-265
43.046	43.086	1817.112	1816.8533	-33.46	-266.43
43.086	43.125	1816.8533	1816.6133	-33.39	-267.53
43.125	43.165	1816.6133	1816.3733	-33.74	-267.74
43.165	43.205	1816.3733	1816.1333	999999	-267.48
43.205	43.245	1816.1333	1815.84	-33.87	-268.07
43.245	43.285	1815.84	1815.48	-33.87	-267.44
43.285	43.324	1815.48	1815.12	-33.89	-267.59
43.324	43.364	1815.12	1814.8933	-33.85	-267.27
43.364	43.404	1814.8933	1814.7333	-34.01	-268.83
43.404	43.444	1814.7333	1814.5733	-34.29	-271.35
43.444	43.484	1814.5733	1814.4133	-34.57	-272.39
43.484	43.523	1814.4133	1814.2533	-34.54	-274.43
43.523	43.563	1814.2533	1814.0933	-34.61	-274.64
43.563	43.603	1814.0933	1813.85	-34.28	-271.5
43.603	43.643	1813.85	1813.49	999999	-271.56
43.643	43.683	1813.49	1813.13	-33.94	-269.67
43.683	43.722	1813.13	1812.816	-33.95	-268.5
43.722	43.762	1812.816	1812.528	999999	-267.71
43.762	43.802	1812.528	1812.24	-33.75	-265.91
43.802	43.842	1812.24	1811.9657	-33.58	-264.99
43.842	43.882	1811.9657	1811.76	-33.53	-264.74
43.882	43.921	1811.76	1811.5543	-33.6	-263.98
43.921	43.961	1811.5543	1811.3486	-33.85	-265.77
43.961	44.001	1811.3486	1811.1429	-33.71	-266.02
44.001	44.042	1811.1429	1810.8601	-34.05	-270.86
44.042	44.083	1810.8601	1810.4702	-34.8	-276.53
44.083	44.124	1810.4702	1810.0803	-35.42	-280.52
44.124	44.166	1810.0803	1809.8624	-35.9	-285.52
44.166	44.207	1809.8624	1809.6891	-36.03	-287.33
44.207	44.248	1809.6891	1809.5158	-36.07	-287.15
44.248	44.289	1809.5158	1809.3425	-35.93	-284.97
44.289	44.33	1809.3425	1809.1692	-35.71	-281.62
44.33	44.371	1809.1692	1808.9963	-35.57	-280.74
44.371	44.412	1808.9963	1808.8404	-35.9	-283.39
44.412	44.453	1808.8404	1808.6844	-35.51	-280.7
44.453	44.495	1808.6844	1808.5284	-35.38	-281.43
44.495	44.536	1808.5284	1808.3725	-36.43	-287.17
44.536	44.577	1808.3725	1808.2165	-36.74	-289.84
44.577	44.618	1808.2165	1808.0606	-36.74	-291.94
44.618	44.659	1808.0606	1807.841	-36.98	-291.53
44.659	44.7	1807.841	1807.581	-36.91	-292.27
44.7	44.741	1807.581	1807.3211	-36.8	-290.81
44.741	44.782	1807.3211	1807.0612	-36.46	-288.33
44.782	44.824	1807.0612	1806.7615	-35.57	-284.13
44.824	44.865	1806.7615	1806.4496	-35.58	-279.75
44.865	44.906	1806.4496	1806.1376	-34.92	-275.18
44.906	44.947	1806.1376	1805.8911	-34.62	-271.77
44.947	44.988	1805.8911	1805.6961	-34.13	-269.31
44.988	45.003	1805.6961	1805.625	-34.03	-267.77
45.003	45.044	1805.625	1805.4388	-33.92	-267.06
45.044	45.086	1805.4388	1805.2527	-33.86	-266.32
45.086	45.127	1805.2527	1805.0665	-33.55	-266.67
45.127	45.169	1805.0665	1804.7607	-33.47	-263.34
45.169	45.21	1804.7607	1804.3884	-33.16	-260.95
45.21	45.252	1804.3884	1804.0161	-32.91	-257.72
45.252	45.293	1804.0161	1803.7625	-32.74	-255.7
45.293	45.335	1803.7625	1803.5143	-32.64	-255.5
45.335	45.376	1803.5143	1803.2661	-32.7	-257.39
45.376	45.418	1803.2661	1803.0179	-32.9	-259.19
45.418	45.459	1803.0179	1802.8273	-33.13	-263.42
45.459	45.5	1802.8273	1802.6411	-33.51	-264.82
45.5	45.542	1802.6411	1802.4549	-33.6	-264.34
45.542	45.583	1802.4549	1802.2688	-33.44	-264.48
45.583	45.625	1802.2688	1802.0826	-33.49	-262.35
45.625	45.666	1802.0826	1801.9172	-33.43	-263.59
45.666	45.708	1801.9172	1801.7682	-33.29	-262.17
45.708	45.749	1801.7682	1801.6193	-33.21	-262.86
45.749	45.791	1801.6193	1801.4704	-33.3	-262.33
45.791	45.832	1801.4704	1801.3215	-33.53	-264.57
45.832	45.874	1801.3215	1801.1725	-33.77	-267.28
45.874	45.915	1801.1725	1801.0236	-33.96	-269.05
45.915	45.957	1801.0236	1800.8747	-34.22	-271.52
45.957	45.998	1800.8747	1800.7257	-34.43	-273.22
45.998	46.033	1800.7257	1800.6	-34.58	-272.08
46.033	46.075	1800.6	1800.4392	-34.5	-274.62
46.075	46.116	1800.4392	1800.2784	-34.71	-274.28
46.116	46.158	1800.2784	1800.1175	-34.59	-275.79
46.158	46.2	1800.1175	1799.9459	-34.65	-275.22
46.2	46.242	1799.9459	1799.7449	-34.65	-274.8
46.242	46.283	1799.7449	1799.5438	-34.58	-273.49
46.283	46.325	1799.5438	1799.3428	-34.56	-274.37
46.325	46.367	1799.3428	1799.1418	-34.62	-273.93
46.367	46.409	1799.1418	1798.921	-34.73	-274.94
46.409	46.45	1798.921	1798.653	-34.41	-274.17
46.45	46.492	1798.653	1798.3849	-34.44	-274.07
46.492	46.534	1798.3849	1798.1169	-34.16	-271.03
46.534	46.575	1798.1169	1797.9175	-33.92	-267.06
46.575	46.617	1797.9175	1797.7713	-33.55	-265.51
46.617	46.659	1797.7713	1797.6251	-33.26	-261.43
46.659	46.701	1797.6251	1797.4789	-33.13	-260.1
46.701	46.742	1797.4789	1797.3327	-32.57	-260.48
46.742	46.784	1797.3327	1797.1865	-33.11	-261.37
46.784	46.826	1797.1865	1797.0403	-32.95	-260.57
46.826	46.868	1797.0403	1796.8544	-32.89	-261.94
46.868	46.909	1796.8544	1796.6534	-33.01	-261.07
46.909	46.951	1796.6534	1796.4523	-32.84	-260.79
46.951	46.993	1796.4523	1796.25	-32.73	-258.32
46.993	47.034	1796.25	1796.0389	-32.62	-258.22
47.034	47.075	1796.0389	1795.8032	-32.47	-255.84
47.075	47.117	1795.8032	1795.562	-32.32	-256.09
47.117	47.158	1795.562	1795.3207	-32.22	-255.85
47.158	47.199	1795.3207	1795.0795	-32.11	-254.56
47.199	47.24	1795.0795	1794.8113	-32.12	-253.03
47.24	47.281	1794.8113	1794.5298	-32.02	-252.29
47.281	47.323	1794.5298	1794.2484	-32.29	-256.31
47.323	47.364	1794.2484	1793.9752	-32.76	-259.82
47.364	47.405	1793.9752	1793.7641	-33.4	-265.28
47.405	47.446	1793.7641	1793.553	-33.76	-267.94
47.446	47.487	1793.553	1793.3419	-34.25	-271.75
47.487	47.528	1793.3419	1793.1308	-34.62	-274.5
47.528	47.57	1793.1308	1792.9198	-34.7	-275.32
47.57	47.611	1792.9198	1792.7087	-34.76	-274.44
47.611	47.652	1792.7087	1792.4976	-34.68	-274.89
47.652	47.693	1792.4976	1792.2865	-34.39	-269.86
47.693	47.734	1792.2865	1792.0754	-34.19	-269.03
47.734	47.776	1792.0754	1791.8449	-34.17	-268.94
47.776	47.817	1791.8449	1791.6037	-34.14	-267.67
47.817	47.858	1791.6037	1791.3624	-34.18	-269.08
47.858	47.899	1791.3624	1791.1212	-34.25	-268.46
47.899	47.933	1791.1212	1790.9229	-34.35	-270.53
47.933	47.993	1790.9229	1790.5714	-34.49	-271.64
47.993	48.034	1790.5714	1790.3395	-34.57	-271.6
48.034	48.076	1790.3395	1790.1075	-34.64	-272.29
48.076	48.117	1790.1075	1789.8547	-34.57	-272.84
48.117	48.158	1789.8547	1789.5841	-34.51	-273.06
48.158	48.2	1789.5841	1789.3135	-33.68	999999
48.2	48.241	1789.3135	1789.0428	-34.37	-272.63
48.241	48.282	1789.0428	1788.7722	-34.12	-270.81
48.282	48.323	1788.7722	1788.5015	-33.89	-267.8
48.323	48.365	1788.5015	1788.2309	-33.58	-265.85
48.365	48.406	1788.2309	1787.9603	-33.26	-263.65
48.406	48.447	1787.9603	1787.6896	-33.23	-263.2
48.447	48.489	1787.6896	1787.419	-33.17	-261.18
48.489	48.53	1787.419	1787.1483	-33.18	-262.94
48.53	48.571	1787.1483	1786.9185	-33.41	-263.6
48.571	48.613	1786.9185	1786.738	-33.57	-264.41
48.613	48.654	1786.738	1786.5576	-33.61	-265.48
48.654	48.695	1786.5576	1786.3772	-33.51	-263.12
48.695	48.736	1786.3772	1786.1968	-33.4	-261.08
48.736	48.778	1786.1968	1786.0163	-33.26	-260.67
48.778	48.819	1786.0163	1785.8154	-33.1	-261.31
48.819	48.86	1785.8154	1785.6124	-33.29	-262.54
48.86	48.902	1785.6124	1785.4094	-33.66	-265.47
48.902	48.943	1785.4094	1785.2064	-33.95	-267.94
48.943	48.985	1785.2064	1785	-34.3	-269.94
48.985	49.023	1785	1784.7865	-34.76	-274.44
49.023	49.062	1784.7865	1784.5729	-35.32	-279.51
49.062	49.1	1784.5729	1784.3594	-35.17	-277.03
49.1	49.138	1784.3594	1784.1459	-35.62	-281.27
49.138	49.176	1784.1459	1783.9053	-35.69	-282
49.176	49.215	1783.9053	1783.6063	-35.88	-283.02
49.215	49.253	1783.6063	1783.3074	-35.95	-283.45
49.253	49.291	1783.3074	1783.0084	-35.78	-283.74
49.291	49.329	1783.0084	1782.7579	-35.02	999999
49.329	49.368	1782.7579	1782.5088	-35.55	-280.07
49.368	49.406	1782.5088	1782.2596	-34.41	-270.31
49.406	49.444	1782.2596	1782.0105	-33.85	-264.78
49.444	49.482	1782.0105	1781.7137	-33.03	-257.63
49.482	49.521	1781.7137	1781.4147	-32.58	-253.75
49.521	49.559	1781.4147	1781.1158	-32.29	-253.23
49.559	49.597	1781.1158	1780.8982	-32.64	-254.57
49.597	49.635	1780.8982	1780.7322	-32.92	-258.41
49.635	49.674	1780.7322	1780.5661	-33.23	-260.88
49.674	49.712	1780.5661	1780.4	-33.39	-263.2
49.712	49.75	1780.4	1780.2339	-33.37	-264.68
49.75	49.788	1780.2339	1780.0678	-33.14	-264.42
49.788	49.827	1780.0678	1779.9116	-32.85	-259.62
49.827	49.865	1779.9116	1779.7621	-32.54	-257.47
49.865	49.903	1779.7621	1779.6126	-32.15	-253.78
49.903	49.948	1779.6126	1779.4385	-32.11	-252.94
49.948	49.992	1779.4385	1779.2633	-32.18	-252.73
49.992	50.037	1779.2633	1779.0841	-32.32	-254.96
50.037	50.081	1779.0841	1778.8415	-32.87	-257.54
50.081	50.126	1778.8415	1778.5428	-33.32	-261.47
50.126	50.17	1778.5428	1778.2441	-33.94	-267.51
50.17	50.215	1778.2441	1777.9454	-34.53	-273.02
50.215	50.259	1777.9454	1777.6467	-35.15	-277.65
50.259	50.304	1777.6467	1777.348	-35.34	-278.39
50.304	50.349	1777.348	1777.0493	-35.01	-275.58
50.349	50.393	1777.0493	1776.7862	-34.78	-273.43
50.393	50.438	1776.7862	1776.5302	-34.33	-269.98
50.438	50.482	1776.5302	1776.2742	-34.04	-267.86
50.482	50.527	1776.2742	1776.0182	-33.83	-265.28
50.527	50.571	1776.0182	1775.7621	-33.63	-263.72
50.571	50.616	1775.7621	1775.5061	-33.48	-263.37
50.616	50.661	1775.5061	1775.2501	-33.31	-262.28
50.661	50.705	1775.2501	1774.9931	-32.97	-259.73
50.705	50.75	1774.9931	1774.6944	-32.61	-258.07
50.75	50.794	1774.6944	1774.3957	-32.29	-254.64
50.794	50.839	1774.3957	1774.097	-31.8	-249.74
50.839	50.883	1774.097	1773.879	-31.7	-247.78
50.883	50.928	1773.879	1773.6998	-31.68	-246.84
50.928	50.972	1773.6998	1773.5205	-31.97	-250.16
50.972	51.017	1773.5205	1773.3413	-32.48	-253.94
51.017	51.077	1773.3413	1773.1	-33.33	-262.59
51.077	51.119	1773.1	1772.915	-34.3	-271.44
51.119	51.161	1772.915	1772.63	-34.47	-273.91
51.161	51.203	1772.63	1772.345	-34.6	-272.62
51.203	51.245	1772.345	1772.06	-34.37	-270.68
51.245	51.287	1772.06	1771.8125	-33.85	-265.86
51.287	51.328	1771.8125	1771.575	-33.26	-261.65
51.328	51.37	1771.575	1771.3375	-32.78	-257.11
51.37	51.412	1771.3375	1771.0999	-32.64	-256.56
51.412	51.454	1771.0999	1770.8349	-32.68	-256.3
51.454	51.496	1770.8349	1770.5499	-32.84	-258.52
51.496	51.538	1770.5499	1770.2649	-32.97	-260.92
51.538	51.58	1770.2649	1769.9888	-33.28	-262.02
51.58	51.622	1769.9888	1769.8305	-33.74	-265.26
51.622	51.664	1769.8305	1769.6722	-33.83	-266.66
51.664	51.706	1769.6722	1769.5138	-33.9	-268.72
51.706	51.748	1769.5138	1769.3555	-33.81	-267.12
51.748	51.79	1769.3555	1769.1971	-33.71	-264.66
51.79	51.831	1769.1971	1769.0388	-33.38	-262.96
51.831	51.873	1769.0388	1768.8207	-33.12	-259.21
51.873	51.915	1768.8207	1768.5832	-32.88	-257.2
51.915	51.957	1768.5832	1768.3457	-32.8	-257.1
51.957	51.999	1768.3457	1768.1082	-32.92	-258.68
51.999	52.041	1768.1082	1767.8448	-32.8	-260.79
52.041	52.077	1767.8448	1767.6	-33.59	-266.32
52.077	52.118	1767.6	1767.2582	-33.99	-270.11
52.118	52.158	1767.2582	1766.9303	-34.27	-271.8
52.158	52.199	1766.9303	1766.6454	-34.67	-275.88
52.199	52.239	1766.6454	1766.3605	-34.76	-275.22
52.239	52.28	1766.3605	1766.0757	-35	-275.85
52.28	52.32	1766.0757	1765.8207	-35.18	-278.56
52.32	52.361	1765.8207	1765.5765	-35.29	-279.65
52.361	52.402	1765.5765	1765.3323	-35.36	-280.19
52.402	52.442	1765.3323	1765.0882	-35.37	-279.97
52.442	52.483	1765.0882	1764.844	-35.32	-280.54
52.483	52.523	1764.844	1764.5998	-35.11	-278.61
52.523	52.564	1764.5998	1764.3557	-34.66	-274.38
52.564	52.604	1764.3557	1764.1115	-34.16	-272.24
52.604	52.645	1764.1115	1763.7678	-33.78	-268.66
52.645	52.686	1763.7678	1763.3405	-33.46	-265.13
52.686	52.726	1763.3405	1762.9132	-33.26	-263.48
52.726	52.767	1762.9132	1762.4859	-32.99	-259.33
52.767	52.807	1762.4859	1762.0586	-32.67	-258.05
52.807	52.848	1762.0586	1761.6313	-32.87	-258.67
52.848	52.888	1761.6313	1761.204	-32.74	-257.56
52.888	52.929	1761.204	1760.7766	-32.83	-257.72
52.929	52.979	1760.7766	1760.25	-32.93	-260.36
52.979	53.021	1760.25	1759.9183	-32.98	-261.89
53.021	53.062	1759.9183	1759.6367	-33.07	-260.57
53.062	53.104	1759.6367	1759.355	-32.76	-258.17
53.104	53.145	1759.355	1759.0733	-32.38	-255.24
53.145	53.187	1759.0733	1758.8264	-31.83	-250.97
53.187	53.229	1758.8264	1758.5916	-31.59	-248.15
53.229	53.27	1758.5916	1758.3569	-31.28	-245.45
53.27	53.312	1758.3569	1758.1222	-30.92	-242.97
53.312	53.353	1758.1222	1757.8649	-30.9	-242.61
53.353	53.395	1757.8649	1757.5833	-30.95	-242.37
53.395	53.437	1757.5833	1757.3016	-30.83	-243.63
53.437	53.478	1757.3016	1757.0199	-30.91	-242.92
53.478	53.52	1757.0199	1756.7382	-31.02	-242.66
53.52	53.561	1756.7382	1756.4566	-31.03	-243.74
53.561	53.603	1756.4566	1756.1749	-31.01	-242.96
53.603	53.644	1756.1749	1755.911	-31.02	-243.16
53.644	53.686	1755.911	1755.6763	-31.18	-243.37
53.686	53.728	1755.6763	1755.4415	-31.32	-244.91
53.728	53.769	1755.4415	1755.2068	-31.48	-246.11
53.769	53.811	1755.2068	1754.9761	-31.78	-249.35
53.811	53.852	1754.9761	1754.7749	-32	-252.29
53.852	53.894	1754.7749	1754.5737	-32.48	-256.14
53.894	53.924	1754.5737	1754.4286	-32.83	-258.72
53.924	53.965	1754.4286	1754.2056	-32.9	-260.2
53.965	54.006	1754.2056	1753.9757	-33.02	-261.67
54.006	54.046	1753.9757	1753.6636	-33.03	-261.43
54.046	54.087	1753.6636	1753.3515	-33	-259.36
54.087	54.128	1753.3515	1753.0393	-32.88	-259.77
54.128	54.169	1753.0393	1752.7727	-33.04	-261.62
54.169	54.209	1752.7727	1752.5125	-33.13	-261.54
54.209	54.25	1752.5125	1752.2524	-33.24	-262.73
54.25	54.291	1752.2524	1751.9942	-33.38	-262.31
54.291	54.332	1751.9942	1751.7992	-33.62	-263.4
54.332	54.373	1751.7992	1751.6041	-33.98	-267.69
54.373	54.413	1751.6041	1751.409	-34.19	-269.41
54.413	54.454	1751.409	1751.2139	-34.46	-272.3
54.454	54.495	1751.2139	1751.0188	-34.61	-274.36
54.495	54.536	1751.0188	1750.7985	-34.72	-274.79
54.536	54.577	1750.7985	1750.5756	-34.89	-274.93
54.577	54.617	1750.5756	1750.3526	-34.91	-274.9
54.617	54.658	1750.3526	1750.1297	-34.79	-273.61
54.658	54.699	1750.1297	1749.9275	-34.57	-271.95
54.699	54.74	1749.9275	1749.754	-34.26	-269.23
54.74	54.78	1749.754	1749.5806	-34	-268.82
54.78	54.821	1749.5806	1749.4072	-33.82	-267.05
54.821	54.862	1749.4072	1749.2339	-33.57	-265.94
54.862	54.917	1749.2339	1749	-33.32	-264.57
54.917	54.958	1749	1748.8142	-33.08	-261.88
54.958	55	1748.8142	1748.6284	999999	999999
55	55.041	1748.6284	1748.4425	-32.68	-258.71
55.041	55.083	1748.4425	1748.2567	-32.46	-257.8
55.083	55.124	1748.2567	1748.0709	-32.24	-255.71
55.124	55.166	1748.0709	1747.8194	-32	-252.84
55.166	55.207	1747.8194	1747.5274	-31.81	-250.02
55.207	55.248	1747.5274	1747.2353	-31.69	-251.23
55.248	55.29	1747.2353	1746.9504	-31.66	-250.14
55.29	55.331	1746.9504	1746.6949	-31.5	-249.65
55.331	55.373	1746.6949	1746.4394	-31.73	-251.4
55.373	55.414	1746.4394	1746.1839	-32.03	-251.78
55.414	55.456	1746.1839	1745.9182	-32.1	-254.78
55.456	55.497	1745.9182	1745.6261	-32.47	-256.36
55.497	55.539	1745.6261	1745.3341	-32.59	-258.72
55.539	55.58	1745.3341	1745.0421	-32.71	-260.4
55.58	55.621	1745.0421	1744.6502	-32.81	-259.69
55.621	55.663	1744.6502	1744.2413	-32.88	-261.63
55.663	55.704	1744.2413	1743.8325	-32.78	-260.93
55.704	55.746	1743.8325	1743.4237	-32.72	-258.65
55.746	55.787	1743.4237	1743.0149	-32.53	-257.04
55.787	55.829	1743.0149	1742.6717	-32.6	-255.89
55.829	55.87	1742.6717	1742.3311	-32.59	-256.12
55.87	55.89	1742.3311	1742.1667	-32.29	-256.56
55.89	55.931	1742.1667	1741.8819	-33.27	-264.03
55.931	55.972	1741.8819	1741.5972	-33.36	-264.84
55.972	56.013	1741.5972	1741.3125	-33.47	-265.79
56.013	56.054	1741.3125	1741.0278	-33.38	-267.3
56.054	56.095	1741.0278	1740.743	-33.52	-267.38
56.095	56.136	1740.743	1740.4583	-33.49	-266.98
56.136	56.177	1740.4583	1740.1736	-33.42	-266.87
56.177	56.218	1740.1736	1739.9167	-33.29	-266.56
56.218	56.259	1739.9167	1739.7031	-33.28	-266.58
56.259	56.3	1739.7031	1739.4896	-33.44	-266.5
56.3	56.341	1739.4896	1739.276	-33.35	-267.08
56.341	56.383	1739.276	1739.0625	-33.41	-267.21
56.383	56.424	1739.0625	1738.8274	-33.29	-264.46
56.424	56.465	1738.8274	1738.5833	-33.09	-264.22
56.465	56.506	1738.5833	1738.3393	-33.03	-264.33
56.506	56.547	1738.3393	1738.0952	-32.93	-261.45
56.547	56.588	1738.0952	1737.8263	-32.64	-259.78
56.588	56.629	1737.8263	1737.5416	-32.67	-259.18
56.629	56.67	1737.5416	1737.2569	-32.71	-258.59
56.67	56.711	1737.2569	1736.9762	-32.87	-259.13
56.711	56.752	1736.9762	1736.7321	-32.94	-259.11
56.752	56.793	1736.7321	1736.4881	-32.87	-259.63
56.793	56.834	1736.4881	1736.244	-32.78	-256.97
56.834	56.875	1736.244	1736	-32.72	-257.68
56.875	56.916	1736	1735.8009	-33.3	-263.37
56.916	56.957	1735.8009	1735.6018	-33.37	-264.31
56.957	56.998	1735.6018	1735.4028	-33.4	-263.63
56.998	57.039	1735.4028	1735.2037	-33.56	-265.45
57.039	57.08	1735.2037	1735.0046	-33.78	-265.96
57.08	57.121	1735.0046	1734.8055	-33.97	-268.78
57.121	57.162	1734.8055	1734.6065	-34.11	-269.79
57.162	57.203	1734.6065	1734.4074	-33.99	-268.32
57.203	57.244	1734.4074	1734.2083	-33.41	-263.13
57.244	57.285	1734.2083	1734.0092	-32.89	-259.51
57.285	57.326	1734.0092	1733.7153	-32.33	-252.32
57.326	57.368	1733.7153	1733.4166	-31.82	-249.6
57.368	57.409	1733.4166	1733.118	-31.51	-246.72
57.409	57.45	1733.118	1732.8452	-31.36	-246.79
57.45	57.491	1732.8452	1732.5893	-31.42	-247.19
57.491	57.532	1732.5893	1732.3333	-31.5	-248.9
57.532	57.573	1732.3333	1732.0773	-31.69	-250.8
57.573	57.614	1732.0773	1731.7499	-31.84	-250.63
57.614	57.655	1731.7499	1731.3916	-31.89	-251.25
57.655	57.696	1731.3916	1731.0333	-32.11	-253.01
57.696	57.737	1731.0333	1730.6749	-32.38	-255.53
57.737	57.778	1730.6749	1730.3166	-32.82	-259.8
57.778	57.819	1730.3166	1729.9652	-33.05	-261.03
57.819	57.86	1729.9652	1729.6667	-33.28	-262.68
57.86	57.901	1729.6667	1729.324	-33.39	-263.12
57.901	57.942	1729.324	1728.9775	-33.44	-263.91
57.942	57.983	1728.9775	1728.5663	-33.54	-264.75
57.983	58.024	1728.5663	1728.1551	-32.68	999999
58.024	58.065	1728.1551	1727.8577	-33.42	-262.89
58.065	58.105	1727.8577	1727.6292	-33.56	-263.84
58.105	58.146	1727.6292	1727.4008	-33.57	-264.33
58.146	58.187	1727.4008	1727.1723	-33	-263.56
58.187	58.228	1727.1723	1726.9158	-33.51	-263.54
58.228	58.269	1726.9158	1726.5731	-33.42	-262.29
58.269	58.31	1726.5731	1726.2304	-33.23	-260.94
58.31	58.351	1726.2304	1725.9387	-32.98	-259.56
58.351	58.392	1725.9387	1725.7518	-32.91	-258.72
58.392	58.433	1725.7518	1725.5649	-32.85	-258.49
58.433	58.474	1725.5649	1725.378	-32.78	999999
58.474	58.515	1725.378	1725.191	-32.7	-257.48
58.515	58.555	1725.191	1725.0041	-32.75	-257.42
58.555	58.596	1725.0041	1724.6649	-32.72	-257.02
58.596	58.637	1724.6649	1724.3222	-32.69	-256.56
58.637	58.678	1724.3222	1723.9795	-32.63	-257.08
58.678	58.719	1723.9795	1723.6368	-32.54	-256.57
58.719	58.76	1723.6368	1723.2941	-32.57	-255.37
58.76	58.815	1723.2941	1722.8571	-32.59	-256.18
58.815	58.856	1722.8571	1722.5732	-32.7	-256.75
58.856	58.897	1722.5732	1722.2892	-32.87	-258.79
58.897	58.938	1722.2892	1722.0052	-33.17	-262.84
58.938	58.979	1722.0052	1721.6097	-33.37	-264.34
58.979	59.02	1721.6097	1721.2121	-33.55	-266.71
59.02	59.061	1721.2121	1720.8675	-33.64	-266.8
59.061	59.102	1720.8675	1720.5836	-33.52	-266.75
59.102	59.143	1720.5836	1720.2996	-33.52	-265.66
59.143	59.184	1720.2996	1720.0156	-33.46	-264.18
59.184	59.225	1720.0156	1719.6869	-33.48	-264.4
59.225	59.266	1719.6869	1719.3556	-33.22	-263.81
59.266	59.307	1719.3556	1719.0242	-33.55	-263.58
59.307	59.348	1719.0242	1718.6315	-33.58	-266.73
59.348	59.389	1718.6315	1718	-33.72	-267.11
